File: Example Data/Raman/CNT - TIM/Raytheon/Al foil/2010/07-07-10/Cu Batch 1 - top.txt
300	5.84006
306.115	10.894
312.23	8.27274
318.345	8.95426
324.46	7.10142
330.576	2.56543
336.691	4.78689
342.806	2.262
348.921	5.69388
355.036	5.08587
361.151	7.6959
367.266	5.66754
373.381	5.06057
379.496	11.965
385.612	7.66894
391.727	1.74894
397.842	5.22588
403.957	12.1961
410.072	5.85862
416.187	10.442
422.302	9.57245
428.417	11.313
434.532	10.3112
440.647	10.9907
446.763	12.3691
452.878	11.2038
458.993	6.95724
465.108	7.79844
471.223	8.95529
477.338	9.18034
483.453	9.92335
489.568	10.4121
495.683	5.70994
501.799	3.80919
507.914	9.20269
514.029	8.92569
520.144	8.78302
526.259	5.55361
532.374	7.88927
538.489	6.02092
544.604	9.99776
550.719	5.13719
556.835	5.95788
562.95	1.85934
569.065	0
575.18	4.20104
581.295	5.81701
587.41	10.2992
593.525	7.15206
599.64	5.03246
605.755	-0.862802
611.87	1.01951
617.986	4.95716
624.101	4.53552
630.216	9.68904
636.331	6.77952
642.446	11.0177
648.561	11.2605
654.676	8.42113
660.791	5.1737
666.906	10.0277
673.022	13.4578
679.137	12.2551
685.252	11.154
691.367	11.5952
697.482	12.1463
703.597	3.37946
709.712	4.82524
715.827	9.40648
721.942	9.82855
728.058	8.74516
734.173	12.4441
740.288	14.9586
746.403	12.0592
752.518	9.87088
758.633	14.9929
764.748	7.75946
770.863	10.6429
776.978	12.4615
783.094	15.4413
789.209	15.4458
795.324	17.9907
801.439	20.6053
807.554	16.4207
813.669	22.4309
819.784	19.9165
825.899	15.394
832.014	19.6582
838.13	20.0688
844.245	15.2548
850.36	17.1194
856.475	21.0325
862.59	17.3976
868.705	9.71638
874.82	14.013
880.935	9.54484
887.05	6.93062
893.165	9.23515
899.281	4.17389
905.396	0.537419
911.511	1.00209
917.626	0.878969
923.741	-0.646294
929.856	2.51863
935.971	-1.80484
942.086	1.34288
948.201	0.724764
954.317	-2.6511
960.432	-1.69236
966.547	-0.974599
972.662	4.52468
978.777	3.64921
984.892	-0.0463761
991.007	-0.649953
997.122	-1.14763
1003.24	2.38256
1009.35	6.81322
1015.47	2.48672
1021.58	10.2441
1027.7	12.7508
1033.81	11.6154
1039.93	10.6278
1046.04	13.746
1052.16	18.3067
1058.27	18.1775
1064.39	11.3575
1070.5	14.7269
1076.62	15.3081
1082.73	14.1013
1088.85	15.89
1094.96	16.128
1101.08	15.9996
1107.19	16.0663
1113.31	13.1414
1119.42	16.4478
1125.54	5.06499
1131.65	4.89886
1137.77	1.99289
1143.88	3.35785
1150	16.186
1156.12	20.116
1162.23	20.2716
1168.35	23.2572
1174.46	30.1042
1180.58	23.1943
1186.69	31.6532
1192.81	33.3426
1198.92	27.1771
1205.04	39.5949
1211.15	45.2918
1217.27	53.2674
1223.38	54.502
1229.5	62.1951
1235.61	61.6012
1241.73	72.1239
1247.84	83.6928
1253.96	87.8505
1260.07	100.824
1266.19	113.538
1272.3	119.913
1278.42	136.589
1284.53	156.444
1290.65	185.751
1296.76	207.919
1302.88	230.11
1308.99	279.242
1315.11	319.474
1321.22	365.444
1327.34	413.366
1333.45	444.949
1339.57	504.049
1345.68	532.739
1351.8	531.283
1357.91	517.281
1364.03	471.707
1370.14	417.117
1376.26	385.772
1382.37	331.343
1388.49	293.817
1394.6	271.289
1400.72	232.212
1406.83	213.095
1412.95	188.477
1419.06	188.541
1425.18	169.379
1431.29	169.386
1437.41	154.924
1443.53	150.616
1449.64	156.902
1455.76	137.827
1461.87	129.006
1467.99	128.62
1474.1	133.693
1480.22	134.304
1486.33	138.082
1492.45	133.884
1498.56	133.563
1504.68	153.799
1510.79	154.484
1516.91	147.281
1523.02	162.855
1529.14	163.44
1535.25	164.434
1541.37	181.451
1547.48	201.157
1553.6	236.54
1559.71	264.552
1565.83	295.384
1571.94	325.386
1578.06	369.636
1584.17	411.626
1590.29	446.823
1596.4	466.275
1602.52	463.676
1608.63	438.002
1614.75	413.783
1620.86	386.22
1626.98	328.341
1633.09	272.088
1639.21	219.947
1645.32	170.292
1651.44	126.295
1657.55	93.6275
1663.67	74.6592
1669.78	51.7823
1675.9	36.5958
1682.01	25.9467
1688.13	19.913
1694.24	9.80938
1700.36	5.19222
1706.47	7.75336
1712.59	4.34023
1718.71	4.24326
1724.82	3.95528
1730.94	0.580071
1737.05	3.25103
1743.17	-3.34293
1749.28	-4.17471
1755.4	-0.904258
1761.51	-4.87934
1767.63	-2.46601
1773.74	-6.35288
1779.86	0.677551
1785.97	-5.06204
1792.09	-0.401368
1798.2	-3.45965
1804.32	-6.14922
1810.43	-3.76921
1816.55	-5.50143
1822.66	-5.06332
1828.78	0.983775
1834.89	-6.5681
1841.01	-3.79425
1847.12	-7.54391
1853.24	-2.9935
1859.35	-2.68021
1865.47	-3.27612
1871.58	-2.68526
1877.7	-1.88975
1883.81	-1.13122
1889.93	-0.707764
1896.04	4.50561
1902.16	2.73189
1908.27	-1.3566
1914.39	1.86542
1920.5	-2.74286
1926.62	3.59915
1932.73	-4.44614
1938.85	8.53248
1944.96	-0.617094
1951.08	1.87159
1957.19	0.877675
1963.31	-0.216536
1969.42	3.02497
1975.54	4.25129
1981.65	0
1987.77	5.37807
1993.88	6.51092
2000	8.85123