File: Example Data/Raman/CNT - TIM/Raytheon/Al foil/2010/07-07-10/Cu Batch 1 - bottom.txt
300	27.0911
306.115	22.5344
312.23	29.9402
318.345	28.2292
324.46	29.4763
330.576	27.1214
336.691	21.998
342.806	31.6991
348.921	22.5831
355.036	26.3687
361.151	16.6423
367.266	18.5612
373.381	24.7873
379.496	15.4724
385.612	15.8324
391.727	19.9672
397.842	19.1266
403.957	23.7291
410.072	18.7524
416.187	14.2417
422.302	11.0599
428.417	15.3527
434.532	5.73131
440.647	14.845
446.763	13.6982
452.878	6.90733
458.993	13.2771
465.108	7.30366
471.223	6.59212
477.338	4.1665
483.453	2.84931
489.568	-0.0422564
495.683	2.31228
501.799	0.0603241
507.914	0.286875
514.029	6.23364
520.144	0.0728179
526.259	-2.23672
532.374	-6.07532
538.489	1.64091
544.604	-1.25723
550.719	-9.58092
556.835	-6.74356
562.95	-5.34789
569.065	-0.400925
575.18	-1.64195
581.295	-2.94064
587.41	-4.9639
593.525	-9.3985
599.64	-7.56893
605.755	-1.68372
611.87	-2.48329
617.986	-0.586054
624.101	-2.35078
630.216	-6.5841
636.331	-1.63444
642.446	-0.699567
648.561	4.54875
654.676	-6.13697
660.791	-0.817457
666.906	3.51344
673.022	0.850153
679.137	4.05215
685.252	-3.10545
691.367	-1.85059
697.482	1.59822
703.597	1.88425
709.712	6.43771
715.827	0.824493
721.942	8.09362
728.058	11.7144
734.173	8.07493
740.288	6.47367
746.403	11.93
752.518	2.91786
758.633	11.8749
764.748	14.8095
770.863	7.85136
776.978	13.3664
783.094	17.072
789.209	9.55326
795.324	18.4609
801.439	14.9575
807.554	22.9669
813.669	21.8246
819.784	21.9081
825.899	20.3662
832.014	18.6042
838.13	28.1508
844.245	18.1026
850.36	20.2896
856.475	28.059
862.59	22.4957
868.705	15.8991
874.82	16.1228
880.935	17.3317
887.05	16.1588
893.165	11.9903
899.281	3.51607
905.396	8.96405
911.511	1.57552
917.626	9.07493
923.741	10.9042
929.856	11.3899
935.971	12.0233
942.086	4.96742
948.201	5.00819
954.317	7.18032
960.432	6.15417
966.547	10.3966
972.662	5.30494
978.777	6.45512
984.892	7.95333
991.007	6.8127
997.122	5.71864
1003.24	0.330311
1009.35	2.95243
1015.47	1.69152
1021.58	0.764288
1027.7	6.85379
1033.81	3.89345
1039.93	12.315
1046.04	9.61832
1052.16	15.6008
1058.27	12.743
1064.39	18.9317
1070.5	12.216
1076.62	11.4897
1082.73	12.931
1088.85	13.4964
1094.96	9.92203
1101.08	9.04461
1107.19	6.87134
1113.31	13.4911
1119.42	1.61782
1125.54	4.21744
1131.65	-7.35134
1137.77	-4.33904
1143.88	-7.56005
1150	-2.05683
1156.12	3.19474
1162.23	12.3436
1168.35	-4.68409
1174.46	13.0348
1180.58	5.43758
1186.69	3.34208
1192.81	1.84798
1198.92	-1.80136
1205.04	0.0427919
1211.15	15.1423
1217.27	14.5036
1223.38	14.237
1229.5	24.7036
1235.61	16.3751
1241.73	27.3404
1247.84	44.185
1253.96	43.1878
1260.07	54.9484
1266.19	55.3509
1272.3	77.4586
1278.42	96.3846
1284.53	112.988
1290.65	129.323
1296.76	139.365
1302.88	178.004
1308.99	205.874
1315.11	245.586
1321.22	296.029
1327.34	312.559
1333.45	359.852
1339.57	376.462
1345.68	386.785
1351.8	371.568
1357.91	355.154
1364.03	307.368
1370.14	268.044
1376.26	221.782
1382.37	192.902
1388.49	158.027
1394.6	121.88
1400.72	124.11
1406.83	93.8598
1412.95	72.3914
1419.06	64.1924
1425.18	49.7916
1431.29	30.1953
1437.41	20.6238
1443.53	20.9256
1449.64	4.94619
1455.76	7.99526
1461.87	7.48176
1467.99	-8.57
1474.1	14.6481
1480.22	-1.38969
1486.33	-0.989359
1492.45	11.7698
1498.56	3.26288
1504.68	6.58193
1510.79	17.3052
1516.91	17.9154
1523.02	28.8928
1529.14	39.8625
1535.25	57.534
1541.37	87.2759
1547.48	109.878
1553.6	142.089
1559.71	185.255
1565.83	223.022
1571.94	264.063
1578.06	299.851
1584.17	344.248
1590.29	374.095
1596.4	391.91
1602.52	374.145
1608.63	364.885
1614.75	333.54
1620.86	295.109
1626.98	246.554
1633.09	195.347
1639.21	147.046
1645.32	116.457
1651.44	78.3949
1657.55	48.9253
1663.67	30.7257
1669.78	16.6008
1675.9	7.39816
1682.01	7.30242
1688.13	3.94833
1694.24	-5.32453
1700.36	-0.420779
1706.47	0.814574
1712.59	-5.32708
1718.71	-3.14075
1724.82	-4.38874
1730.94	-5.58704
1737.05	0.972522
1743.17	-5.7122
1749.28	-1.35897
1755.4	-0.189384
1761.51	2.88437
1767.63	10.7625
1773.74	-0.458528
1779.86	7.38361
1785.97	-1.50952
1792.09	-0.360956
1798.2	1.53127
1804.32	0.016032
1810.43	4.42311
1816.55	3.65303
1822.66	-1.71033
1828.78	3.71615
1834.89	6.59218
1841.01	5.65965
1847.12	3.41201
1853.24	2.68245
1859.35	-0.300463
1865.47	3.68669
1871.58	9.85152
1877.7	5.33139
1883.81	2.61906
1889.93	6.63942
1896.04	10.3684
1902.16	6.88656
1908.27	8.45428
1914.39	9.86532
1920.5	6.33841
1926.62	10.6335
1932.73	13.0685
1938.85	7.42819
1944.96	12.0659
1951.08	17.9371
1957.19	12.4348
1963.31	13.9275
1969.42	13.9779
1975.54	14.2749
1981.65	17.264
1987.77	20.2642
1993.88	20.3392
2000	18.7495