File: Example Data/Raman/Kara/12-20-10/Si-Graphene/7bulk/SGbulk_1.txt
300	29.5846
312.649	37.6744
325.298	46.8915
337.946	46.7566
350.595	55.2276
363.244	58.7432
375.893	55.1167
388.542	58.1295
401.19	50.5851
413.839	55.7685
426.488	64.6874
439.137	71.1476
451.786	94.5392
464.435	101.176
477.083	115.567
489.732	113.002
502.381	67.7198
515.03	48.279
527.679	31.0891
540.327	15.129
552.976	12.104
565.625	9.79867
578.274	9.37751
590.923	10.1218
603.571	9.50854
616.22	9.65561
628.869	8.68319
641.518	10.611
654.167	4.54459
666.815	4.50021
679.464	4.08245
692.113	5.52285
704.762	3.687
717.411	5.80723
730.06	7.44549
742.708	10.4905
755.357	10.221
768.006	9.76929
780.655	8.73256
793.304	10.2917
805.952	10.7754
818.601	13.7379
831.25	12.0536
843.899	15.5977
856.548	14.9815
869.196	9.92619
881.845	13.072
894.494	14.0985
907.143	11.62
919.792	10.8415
932.44	3.14062
945.089	8.86324
957.738	3.27876
970.387	1.04074
983.036	2.31817
995.685	-0.35157
1008.33	0.248749
1020.98	-2.34947
1033.63	-3.45267
1046.28	-5.94797
1058.93	-3.91826
1071.58	-6.82518
1084.23	-8.5614
1096.875	-13.0216
1109.52	-8.6346
1122.17	-7.44277
1134.82	-7.99667
1147.47	-10.5929
1160.12	-11.0407
1172.77	-14.9851
1185.42	-11.0669
1198.07	-11.6976
1210.71	-10.5081
1223.36	-8.87154
1236.01	-11.6666
1248.66	-14.1295
1261.31	-12.6522
1273.96	-11.9146
1286.61	-11.6487
1299.26	-11.4502
1311.9	-8.78606
1324.55	-8.74224
1337.2	-9.61738
1349.85	-6.42397
1362.5	-5.61242
1375.15	-9.37723
1387.8	-9.85973
1400.45	-12.5059
1413.1	-8.62091
1425.74	-6.92951
1438.39	-10.7076
1451.04	-10.7952
1463.69	-10.5145
1476.34	-10.1721
1488.99	-14.3369
1501.64	-12.2
1514.29	-11.9256
1526.93	-11.592
1539.58	-9.83647
1552.23	-9.00023
1564.88	-5.98147
1577.53	-11.4159
1590.18	-8.60401
1602.83	-11.0619
1615.48	-7.22462
1628.125	-7.73779
1640.77	-10.3408
1653.42	-8.82751
1666.07	-11.2447
1678.72	-11.4906
1691.37	-11.6071
1704.02	-9.08975
1716.67	-11.7702
1729.32	-15.4586
1741.96	-11.4437
1754.61	-12.0055
1767.26	-10.7269
1779.91	-8.53128
1792.56	-9.4453
1805.21	-14.3408
1817.86	-11.7082
1830.51	-12.4925
1843.15	-14.2822
1855.8	-13.646
1868.45	-14.6825
1881.1	-10.5613
1893.75	-11.8167
1906.4	-10.0752
1919.05	-9.814
1931.7	-12.1609
1944.35	-9.97601
1956.99	-11.0804
1969.64	-12.5435
1982.29	-11.1727
1994.94	-10.6215
2007.59	-12.4584
2020.24	-12.2105
2032.89	-13.2582
2045.54	-10.209
2058.18	-12.9496
2070.83	-15.0486
2083.48	-13.2427
2096.13	-16.3242
2108.78	-12.171
2121.43	-12.3132
2134.08	-10.2723
2146.73	-10.1333
2159.375	-9.6841
2172.02	-10.9634
2184.67	-12.0313
2197.32	-13.7513
2209.97	-10.7793
2222.62	-12.2539
2235.27	-12.6992
2247.92	-8.74176
2260.57	-12.2117
2273.21	-9.78172
2285.86	-11.6124
2298.51	-7.54597
2311.16	-10.871
2323.81	-10.249
2336.46	-4.14297
2349.11	-9.72233
2361.76	-7.36151
2374.4	-10.0893
2387.05	-7.14554
2399.7	-6.62873
2412.35	-5.40484
2425	2.97464
2437.65	24.8704
2450.3	18.6488
2462.95	2.89068
2475.6	-1.94108
2488.24	0.126388
2500.89	-0.560097
2513.54	-1.27058
2526.19	-2.20994
2538.84	-3.30964
2551.49	-4.75638
2564.14	-3.50017
2576.79	-4.20125
2589.43	-5.63575
2602.08	-5.18593
2614.73	-3.39345
2627.38	-6.35211
2640.03	-3.13259
2652.68	-4.87669
2665.33	-2.79615
2677.98	-4.46694
2690.625	-2.26009
2703.27	-3.35936
2715.92	-1.40026
2728.57	-4.97126
2741.22	-0.404736
2753.87	-4.11378
2766.52	0.0215622
2779.17	-2.5532
2791.82	-1.57667
2804.46	-2.08902
2817.11	-1.44198
2829.76	-2.85674
2842.41	-0.443278
2855.06	-2.96346
2867.71	-3.26627
2880.36	-0.901205
2893.01	-1.20205
2905.65	1.10412
2918.3	-0.980578
2930.95	0.983316
2943.6	2.64926
2956.25	4.30619
2968.9	1.48557
2981.55	0.288761
2994.2	1.80753
3006.85	-1.37943
3019.49	0.503066
3032.14	-5.66251
3044.79	-3.69589
3057.44	-4.30785
3070.09	-3.31451
3082.74	-2.99134
3095.39	-3.228
3108.04	-3.31602
3120.68	-1.68719
3133.33	-3.55443
3145.98	-2.41597
3158.63	0.41732
3171.28	-1.19522
3183.93	-0.143325
3196.58	-2.80233
3209.23	-1.84172
3221.875	1.372
3234.52	-0.655186
3247.17	-0.636582
3259.82	1.99021
3272.47	-0.411477
3285.12	-2.10513
3297.77	-0.980665
3310.42	0.610885
3323.07	2.54598
3335.71	-1.09715
3348.36	0.30144
3361.01	-2.48725
3373.66	-0.299575
3386.31	2.86907
3398.96	-0.489601
3411.61	0.805418
3424.26	5.85155
3436.9	5.35336
3449.55	5.39053
3462.2	1.62196
3474.85	-2.91661
3487.5	0.942544
3500.15	0.165954
3512.8	3.86152
3525.45	-0.545688
3538.1	3.81651
3550.74	-0.888858
3563.39	-1.74031
3576.04	4.30807
3588.69	1.92294
3601.34	1.92223
3613.99	4.43189
3626.64	3.66587
3639.29	6.34913
3651.93	2.64088
3664.58	0.99824
3677.23	4.19704
3689.88	3.78045
3700	9.36812