File: Example Data/Raman/Kara/12-20-10/Si-Graphene/7bulk/SGbulk_4.txt
300	94.3244
312.649	121.304
325.298	131.783
337.946	140.634
350.595	149.636
363.244	142.883
375.893	142.904
388.542	144.808
401.19	144.126
413.839	139.263
426.488	153.711
439.137	175.639
451.786	217.526
464.435	245.971
477.083	255.946
489.732	263.274
502.381	192.13
515.03	135.227
527.679	89.9572
540.327	70.377
552.976	54.4415
565.625	52.0466
578.274	52.9261
590.923	49.4782
603.571	54.5128
616.22	54.9614
628.869	51.8647
641.518	52.4808
654.167	50.3976
666.815	50.2097
679.464	53.4488
692.113	44.9096
704.762	47.7007
717.411	46.0759
730.06	47.111
742.708	48.099
755.357	55.5858
768.006	50.7808
780.655	51.107
793.304	55.2504
805.952	57.2482
818.601	53.2425
831.25	58.7959
843.899	58.9698
856.548	61.7483
869.196	62.5103
881.845	58.328
894.494	56.0179
907.143	56.0525
919.792	48.6902
932.44	48.8525
945.089	48.3
957.738	42.3535
970.387	40.8854
983.036	36.8364
995.685	29.3726
1008.33	32.5662
1020.98	28.5387
1033.63	29.7893
1046.28	29.513
1058.93	24.7939
1071.58	24.0657
1084.23	16.0386
1096.875	19.3542
1109.52	15.5481
1122.17	13.2642
1134.82	13.6708
1147.47	11.6589
1160.12	11.5233
1172.77	10.6769
1185.42	11.6752
1198.07	10.9043
1210.71	9.25574
1223.36	12.8
1236.01	9.99967
1248.66	10.7013
1261.31	14.2548
1273.96	11.9713
1286.61	10.2177
1299.26	14.4374
1311.9	11.4302
1324.55	18.4452
1337.2	20.9891
1349.85	17.3692
1362.5	17.8614
1375.15	18.1468
1387.8	16.1923
1400.45	16.306
1413.1	13.0209
1425.74	12.8554
1438.39	12.4215
1451.04	9.34457
1463.69	13.8244
1476.34	11.8791
1488.99	10.9527
1501.64	8.62868
1514.29	11.3603
1526.93	10.4669
1539.58	8.62102
1552.23	11.9108
1564.88	18.0879
1577.53	15.1478
1590.18	17.11
1602.83	15.2036
1615.48	17.1847
1628.125	13.1385
1640.77	11.2994
1653.42	9.94535
1666.07	12.5961
1678.72	9.06597
1691.37	10.1407
1704.02	5.20969
1716.67	7.92596
1729.32	7.13524
1741.96	8.59426
1754.61	7.1037
1767.26	9.59272
1779.91	14.6738
1792.56	9.69374
1805.21	9.9
1817.86	8.23349
1830.51	6.44961
1843.15	8.46465
1855.8	7.32317
1868.45	6.45509
1881.1	8.15488
1893.75	5.22934
1906.4	9.21728
1919.05	8.011
1931.7	11.2714
1944.35	10.5416
1956.99	10.8201
1969.64	5.77804
1982.29	4.04771
1994.94	6.33718
2007.59	4.32502
2020.24	5.70527
2032.89	5.38507
2045.54	6.27458
2058.18	4.22532
2070.83	5.62729
2083.48	6.32719
2096.13	7.47233
2108.78	6.42965
2121.43	8.11871
2134.08	8.89226
2146.73	6.84466
2159.375	7.16045
2172.02	7.40886
2184.67	8.75106
2197.32	6.87595
2209.97	7.88643
2222.62	7.88482
2235.27	5.21578
2247.92	5.98365
2260.57	9.51904
2273.21	9.37332
2285.86	9.82697
2298.51	9.20621
2311.16	8.81981
2323.81	8.05406
2336.46	23.5707
2349.11	10.2493
2361.76	10.6962
2374.4	10.1584
2387.05	11.5549
2399.7	15.2421
2412.35	20.0703
2425	34.245
2437.65	73.9337
2450.3	67.9839
2462.95	37.2256
2475.6	29.4368
2488.24	27.1954
2500.89	24.8342
2513.54	25.183
2526.19	25.0562
2538.84	25.731
2551.49	23.7007
2564.14	18.4441
2576.79	17.9923
2589.43	16.8467
2602.08	15.7494
2614.73	17.9214
2627.38	17.2012
2640.03	18.6844
2652.68	16.6027
2665.33	21.7563
2677.98	19.0098
2690.625	21.0693
2703.27	20.8487
2715.92	21.8403
2728.57	18.5399
2741.22	18.5282
2753.87	19.4208
2766.52	20.1551
2779.17	18.761
2791.82	20.3194
2804.46	18.0609
2817.11	21.8284
2829.76	20.1348
2842.41	19.6489
2855.06	20.0343
2867.71	21.8225
2880.36	21.7194
2893.01	21.7085
2905.65	19.8082
2918.3	26.1237
2930.95	24.3852
2943.6	26.936
2956.25	31.9982
2968.9	26.1309
2981.55	23.1481
2994.2	20.3199
3006.85	16.4016
3019.49	20.1547
3032.14	20.1228
3044.79	17.9245
3057.44	18.9366
3070.09	20.4624
3082.74	21.6123
3095.39	18.4965
3108.04	18.8372
3120.68	20.1799
3133.33	21.9153
3145.98	21.7065
3158.63	19.6758
3171.28	19.6199
3183.93	21.0976
3196.58	22.22
3209.23	21.2293
3221.875	21.4165
3234.52	21.4319
3247.17	22.4366
3259.82	24.0043
3272.47	20.7321
3285.12	22.9868
3297.77	21.7001
3310.42	24.153
3323.07	22.266
3335.71	24.6897
3348.36	21.1127
3361.01	24.1934
3373.66	21.7271
3386.31	23.7919
3398.96	22.5711
3411.61	27.8752
3424.26	29.7627
3436.9	28.4324
3449.55	25.7984
3462.2	23.8463
3474.85	26.669
3487.5	28.5893
3500.15	24.3391
3512.8	28.6358
3525.45	25.4615
3538.1	27.3981
3550.74	26.1433
3563.39	27.7887
3576.04	29.1092
3588.69	30.4183
3601.34	26.4863
3613.99	27.6657
3626.64	27.7937
3639.29	30.4966
3651.93	25.3913
3664.58	26.2578
3677.23	30.7616
3689.88	26.3645
3700	28.9706