File: Example Data/Raman/Kara/12-20-10/Si-Graphene/7bulk/SGbulk_3.txt
300	56.6541
312.649	72.2589
325.298	74.6945
337.946	97.553
350.595	86.1167
363.244	93.4745
375.893	88.0536
388.542	91.6923
401.19	88.2751
413.839	83.2957
426.488	104.183
439.137	117.764
451.786	140.696
464.435	163.648
477.083	168.855
489.732	171.364
502.381	118.15
515.03	79.8063
527.679	53.1662
540.327	36.4459
552.976	25.0129
565.625	25.4786
578.274	26.892
590.923	29.2187
603.571	21.0429
616.22	24.6643
628.869	20.8424
641.518	23.1624
654.167	20.0362
666.815	19.8918
679.464	21.8443
692.113	17.4503
704.762	22.0965
717.411	19.4596
730.06	25.017
742.708	22.8693
755.357	21.8209
768.006	17.7851
780.655	25.8987
793.304	29.0104
805.952	24.3294
818.601	25.067
831.25	26.5361
843.899	29.8663
856.548	29.3337
869.196	28.1655
881.845	35.1372
894.494	29.1257
907.143	22.2619
919.792	24.4221
932.44	17.9166
945.089	16.2803
957.738	16.09
970.387	18.0955
983.036	12.6494
995.685	12.8188
1008.33	11.6963
1020.98	9.47697
1033.63	7.97764
1046.28	8.96403
1058.93	4.20373
1071.58	0.240757
1084.23	1.29825
1096.875	-2.49398
1109.52	-1.51499
1122.17	-2.88619
1134.82	-4.08452
1147.47	-3.67075
1160.12	-1.76656
1172.77	-4.72325
1185.42	-3.51556
1198.07	-4.23605
1210.71	-2.82432
1223.36	-4.59755
1236.01	-4.92943
1248.66	-2.05096
1261.31	-5.82687
1273.96	-4.76525
1286.61	-4.4982
1299.26	-2.03131
1311.9	3.5847
1324.55	-1.00458
1337.2	-0.414595
1349.85	3.08254
1362.5	4.29852
1375.15	1.18989
1387.8	-0.113135
1400.45	-0.369705
1413.1	-3.45195
1425.74	1.64947
1438.39	-4.12971
1451.04	-4.17731
1463.69	1.97071
1476.34	-2.29569
1488.99	-7.39836
1501.64	-6.49646
1514.29	-6.71074
1526.93	-3.14096
1539.58	-6.07052
1552.23	-4.88913
1564.88	-2.02647
1577.53	-3.75721
1590.18	0.503345
1602.83	-4.33643
1615.48	-3.97182
1628.125	-4.34178
1640.77	-4.90822
1653.42	-3.68136
1666.07	-4.57223
1678.72	-3.95213
1691.37	-4.79897
1704.02	-5.12821
1716.67	-5.29086
1729.32	-6.37853
1741.96	-6.48608
1754.61	-7.40629
1767.26	-4.51566
1779.91	-2.20847
1792.56	-3.16824
1805.21	-6.80602
1817.86	-6.32151
1830.51	-4.85604
1843.15	-8.88215
1855.8	-4.75274
1868.45	-7.57143
1881.1	-10.5392
1893.75	-7.28571
1906.4	-7.65844
1919.05	-4.12857
1931.7	-2.12565
1944.35	-3.22172
1956.99	-6.05674
1969.64	-8.6957
1982.29	-5.01947
1994.94	-6.76626
2007.59	-8.45532
2020.24	-7.2117
2032.89	-6.77559
2045.54	-6.20258
2058.18	-8.19673
2070.83	-7.6087
2083.48	-6.86554
2096.13	-6.07052
2108.78	-4.44622
2121.43	-8.51221
2134.08	-5.68767
2146.73	-7.46933
2159.375	-6.01438
2172.02	-4.53771
2184.67	-4.86267
2197.32	-5.81604
2209.97	-5.57756
2222.62	-6.39758
2235.27	-6.75232
2247.92	-6.88614
2260.57	-4.54001
2273.21	-3.9565
2285.86	-5.55928
2298.51	-2.55637
2311.16	-5.73431
2323.81	-3.08172
2336.46	3.66201
2349.11	-1.86245
2361.76	-1.82561
2374.4	-0.969489
2387.05	-0.852059
2399.7	0.860259
2412.35	3.80131
2425	12.3139
2437.65	42.428
2450.3	35.1276
2462.95	16.464
2475.6	9.10674
2488.24	10.5785
2500.89	7.02311
2513.54	6.69952
2526.19	7.63248
2538.84	7.04236
2551.49	4.45378
2564.14	3.0034
2576.79	2.86959
2589.43	1.79363
2602.08	1.21196
2614.73	2.32024
2627.38	4.73197
2640.03	4.31584
2652.68	3.37938
2665.33	5.17273
2677.98	4.57012
2690.625	6.3129
2703.27	5.02478
2715.92	5.91946
2728.57	1.81874
2741.22	4.09871
2753.87	1.60534
2766.52	7.88972
2779.17	2.83196
2791.82	6.91147
2804.46	5.31222
2817.11	3.53442
2829.76	4.7091
2842.41	4.10299
2855.06	6.00126
2867.71	7.50106
2880.36	5.96437
2893.01	6.91455
2905.65	4.31701
2918.3	9.8223
2930.95	9.76272
2943.6	8.93706
2956.25	12.383
2968.9	7.90452
2981.55	6.97936
2994.2	7.11077
3006.85	5.89604
3019.49	4.94331
3032.14	3.1392
3044.79	3.34494
3057.44	5.10666
3070.09	6.51916
3082.74	6.64316
3095.39	3.73911
3108.04	3.37351
3120.68	6.36603
3133.33	6.36603
3145.98	8.17557
3158.63	7.49156
3171.28	5.17135
3183.93	5.54878
3196.58	5.53086
3209.23	6.63635
3221.875	7.61212
3234.52	3.9183
3247.17	6.32464
3259.82	8.04387
3272.47	11.103
3285.12	7.84042
3297.77	7.33699
3310.42	12.0416
3323.07	6.27018
3335.71	6.7173
3348.36	8.36039
3361.01	7.03832
3373.66	9.6197
3386.31	9.9208
3398.96	7.84552
3411.61	8.87857
3424.26	10.9299
3436.9	11.8553
3449.55	11.0535
3462.2	10.7441
3474.85	7.99768
3487.5	6.03794
3500.15	11.4935
3512.8	10.0485
3525.45	12.3836
3538.1	9.02132
3550.74	13.2653
3563.39	8.7644
3576.04	10.6715
3588.69	10.9719
3601.34	9.19789
3613.99	12.6973
3626.64	13.2988
3639.29	11.6935
3651.93	11.0493
3664.58	12.1588
3677.23	11.766
3689.88	9.21917
3700	10.4473