File: Example Data/Raman/Kara/12-20-10/Si-Graphene/7bulk/SGbulk_2.txt
300	35.8114
312.649	37.214
325.298	49.7159
337.946	57.5778
350.595	61.7093
363.244	55.1539
375.893	55.775
388.542	52.0164
401.19	63.7597
413.839	55.9035
426.488	62.861
439.137	72.1828
451.786	96.8914
464.435	102.556
477.083	114.708
489.732	111.405
502.381	75.1806
515.03	54.2631
527.679	29.6642
540.327	16.1236
552.976	14.6025
565.625	9.0024
578.274	12.2618
590.923	10.7219
603.571	12.5085
616.22	14.1022
628.869	11.8561
641.518	7.9767
654.167	7.60547
666.815	7.24846
679.464	9.62751
692.113	7.92284
704.762	11.1156
717.411	7.6494
730.06	8.97744
742.708	10.1387
755.357	11.3926
768.006	8.95759
780.655	8.1186
793.304	11.1514
805.952	14.1236
818.601	10.8302
831.25	14.5114
843.899	13.3843
856.548	14.0834
869.196	17.1
881.845	17.0481
894.494	12.4358
907.143	9.21753
919.792	8.86884
932.44	9.2
945.089	8.3673
957.738	7.9969
970.387	5.81914
983.036	5.09091
995.685	1.63789
1008.33	2.25042
1020.98	-0.0435625
1033.63	-1.39541
1046.28	-1.47888
1058.93	-2.60958
1071.58	-2.55665
1084.23	-6.89474
1096.875	-6.5
1109.52	-6.76172
1122.17	-8.10105
1134.82	-6.27875
1147.47	-9.1071
1160.12	-9.10119
1172.77	-9.15942
1185.42	-9.4594
1198.07	-9.47626
1210.71	-9.57702
1223.36	-9.07805
1236.01	-9.68335
1248.66	-9.20263
1261.31	-9.86305
1273.96	-8.2205
1286.61	-8.72437
1299.26	-8.04702
1311.9	-6.46745
1324.55	-5.79679
1337.2	-7.80869
1349.85	-4.05367
1362.5	-5.47586
1375.15	-3.96324
1387.8	-7.50269
1400.45	-4.79366
1413.1	-9.81637
1425.74	-7.38062
1438.39	-8.21084
1451.04	-7.75416
1463.69	-9.3265
1476.34	-9.64407
1488.99	-11.3484
1501.64	-10.3761
1514.29	-9.63168
1526.93	-7.36489
1539.58	-10.117
1552.23	-6.3775
1564.88	-5.08211
1577.53	-5.79471
1590.18	-6.11338
1602.83	-5.42769
1615.48	-6.54219
1628.125	-9.15334
1640.77	-9.86313
1653.42	-10.3115
1666.07	-8.50113
1678.72	-8.2911
1691.37	-11.7044
1704.02	-11.9003
1716.67	-9.57043
1729.32	-9.26519
1741.96	-10.7632
1754.61	-10.8468
1767.26	-8.53663
1779.91	-9.56546
1792.56	-8.79337
1805.21	-12.0753
1817.86	-10.9248
1830.51	-11.3884
1843.15	-11.9525
1855.8	-10.746
1868.45	-11.4825
1881.1	-10.7968
1893.75	-10.6473
1906.4	-9.96242
1919.05	-9.107
1931.7	-12.8503
1944.35	-8.644
1956.99	-11.457
1969.64	-11.8632
1982.29	-10.7492
1994.94	-11.5893
2007.59	-10.775
2020.24	-9.46871
2032.89	-8.65821
2045.54	-9.20226
2058.18	-11.1851
2070.83	-10.9683
2083.48	-11.5687
2096.13	-11.9239
2108.78	-10.7679
2121.43	-8.9996
2134.08	-8.53973
2146.73	-9.53044
2159.375	-9.34336
2172.02	-10.1789
2184.67	-9.61681
2197.32	-10.4965
2209.97	-10.339
2222.62	-9.71991
2235.27	-10.7463
2247.92	-9.43018
2260.57	-7.7727
2273.21	-8.5105
2285.86	-7.73992
2298.51	-8.3792
2311.16	-8.80069
2323.81	-8.32304
2336.46	-1.86998
2349.11	-6.42078
2361.76	-6.1724
2374.4	-5.16989
2387.05	-4.53537
2399.7	-5.26028
2412.35	-2.08787
2425	4.60416
2437.65	25.8314
2450.3	19.6141
2462.95	6.04303
2475.6	1.69472
2488.24	0.677914
2500.89	-0.654562
2513.54	-0.801591
2526.19	0.545793
2538.84	-0.391781
2551.49	-0.976216
2564.14	-3.09555
2576.79	-4.83515
2589.43	-4.16276
2602.08	-2.92597
2614.73	-3.53862
2627.38	-2.1421
2640.03	-1.57918
2652.68	-2.96785
2665.33	-0.828988
2677.98	-1.36113
2690.625	-0.210296
2703.27	0.267723
2715.92	-1.27502
2728.57	-1.24835
2741.22	-1.42305
2753.87	-0.6939
2766.52	-1.41541
2779.17	-1.32833
2791.82	-0.69545
2804.46	0.678443
2817.11	-0.173547
2829.76	-0.807608
2842.41	1.83897
2855.06	-2.66072
2867.71	2.08812
2880.36	1.19798
2893.01	0.857144
2905.65	2.33032
2918.3	1.98746
2930.95	3.84674
2943.6	2.52531
2956.25	4.15117
2968.9	3.9608
2981.55	0.53036
2994.2	-3.28328
3006.85	-0.654613
3019.49	1.02418
3032.14	-1.24223
3044.79	-2.45891
3057.44	1.0005
3070.09	-2.36242
3082.74	-0.0468764
3095.39	0.465012
3108.04	-0.40611
3120.68	-0.133224
3133.33	1.56882
3145.98	-0.00491238
3158.63	-0.784487
3171.28	-0.991481
3183.93	-2.10993
3196.58	-1.33245
3209.23	0.523021
3221.875	2.10304
3234.52	0.0431828
3247.17	1.16967
3259.82	4.47958
3272.47	1.86677
3285.12	2.09834
3297.77	3.00189
3310.42	0.255584
3323.07	2.32078
3335.71	2.47132
3348.36	-0.101361
3361.01	1.50465
3373.66	0.902045
3386.31	2.73123
3398.96	5.56353
3411.61	4.14708
3424.26	3.76366
3436.9	4.26468
3449.55	1.20186
3462.2	1.54032
3474.85	6.07047
3487.5	3.90997
3500.15	3.50954
3512.8	1.95304
3525.45	4.13189
3538.1	6.11434
3550.74	4.79698
3563.39	7.14349
3576.04	4.49481
3588.69	5.87064
3601.34	6.00888
3613.99	2.24594
3626.64	7.28116
3639.29	4.9893
3651.93	4.07036
3664.58	3.22526
3677.23	4.8126
3689.88	4.39024
3700	3.86091