File: Example Data/Raman/Kara/12-20-10/Si-Graphene/7bulk/SGbulk_5.txt
300	37.8167
312.649	45.8021
325.298	50.7532
337.946	61.7119
350.595	61.5038
363.244	64.1791
375.893	64.1417
388.542	62.111
401.19	59.5015
413.839	57.5607
426.488	68.8194
439.137	82.2461
451.786	94.556
464.435	113.636
477.083	118.068
489.732	119.783
502.381	85.0209
515.03	58.5769
527.679	35.0793
540.327	17.494
552.976	18.1097
565.625	15.2061
578.274	19.2365
590.923	16.8125
603.571	15.6943
616.22	12.2686
628.869	16.4376
641.518	14.9671
654.167	13.0157
666.815	15.1031
679.464	10.018
692.113	13.998
704.762	10
717.411	13.747
730.06	13.556
742.708	12.4886
755.357	13.4941
768.006	15.3002
780.655	12.0209
793.304	14.4477
805.952	15.994
818.601	14.1488
831.25	18.1691
843.899	16.6314
856.548	14.9004
869.196	20.8635
881.845	17.52
894.494	22.5132
907.143	17.9133
919.792	14.887
932.44	11.103
945.089	9.43651
957.738	10.5024
970.387	8.50576
983.036	2.12726
995.685	8.60527
1008.33	8.38739
1020.98	2.86776
1033.63	3.56795
1046.28	-0.279715
1058.93	0.66607
1071.58	-0.188822
1084.23	-2.0772
1096.875	-2.67473
1109.52	-6.15068
1122.17	-3.23856
1134.82	-4.55583
1147.47	-6.67515
1160.12	-5.7535
1172.77	-6.42003
1185.42	-3.87821
1198.07	-6.53047
1210.71	-5.86553
1223.36	-7.33211
1236.01	-4.93341
1248.66	-5
1261.31	-4.09457
1273.96	-2.90056
1286.61	-2.88234
1299.26	-6.66851
1311.9	-4.88372
1324.55	-1.48396
1337.2	2.95434
1349.85	-2.08229
1362.5	-1.49654
1375.15	-2.2
1387.8	-1.76645
1400.45	-5.4002
1413.1	-5.03136
1425.74	-3.94244
1438.39	-6.10471
1451.04	-4.05303
1463.69	-4.87137
1476.34	-8.47906
1488.99	-4.30969
1501.64	-6.18102
1514.29	-5.22811
1526.93	-5.9695
1539.58	-3.09013
1552.23	-3.46682
1564.88	-1.92588
1577.53	-4.03173
1590.18	-6.00134
1602.83	-1.89447
1615.48	-5.6252
1628.125	-2.12296
1640.77	-5.46146
1653.42	-4.02528
1666.07	-5.99775
1678.72	-7.57539
1691.37	-7.02478
1704.02	-9.36067
1716.67	-5.42211
1729.32	-4.97708
1741.96	-7.92643
1754.61	-7.93216
1767.26	-3.54639
1779.91	-4.6557
1792.56	-5.18398
1805.21	-5.7161
1817.86	-5.48337
1830.51	-3.25634
1843.15	-6.6
1855.8	-6.45383
1868.45	-7.40992
1881.1	-7.49033
1893.75	-7.27665
1906.4	-8.63153
1919.05	-6.07
1931.7	-5.25419
1944.35	-6.8
1956.99	-7.0019
1969.64	-5.03049
1982.29	-6.66816
1994.94	-6.98011
2007.59	-4.54161
2020.24	-6.84764
2032.89	-4.54403
2045.54	-6.20452
2058.18	-7.18739
2070.83	-5.11784
2083.48	-7.27079
2096.13	-7.09785
2108.78	-8.07693
2121.43	-4.24296
2134.08	-5.25758
2146.73	-4.73668
2159.375	-5.74719
2172.02	-6.70719
2184.67	-8.32605
2197.32	-7.03603
2209.97	-7.10248
2222.62	-6.37247
2235.27	-4.87637
2247.92	-6.38676
2260.57	-2.46833
2273.21	-5.05395
2285.86	-6.0501
2298.51	-5.38714
2311.16	-4.42208
2323.81	-4.31885
2336.46	3.03369
2349.11	-2.60952
2361.76	-4.96796
2374.4	-3.3197
2387.05	-3.09351
2399.7	-1.70593
2412.35	0.00931154
2425	9.20006
2437.65	28.0732
2450.3	22.6276
2462.95	7.69406
2475.6	2.84976
2488.24	4.05137
2500.89	1.37438
2513.54	2.08861
2526.19	3.78993
2538.84	3.49507
2551.49	2.87782
2564.14	1.59439
2576.79	-1.25463
2589.43	0.85816
2602.08	1.22294
2614.73	1.80636
2627.38	-0.0206679
2640.03	2.66075
2652.68	-0.117689
2665.33	3.42738
2677.98	0.101186
2690.625	1.60466
2703.27	3.80728
2715.92	0.870301
2728.57	2.23027
2741.22	1.89323
2753.87	0.756824
2766.52	1.67335
2779.17	1.25326
2791.82	1.9523
2804.46	3.59549
2817.11	2.76975
2829.76	1.46009
2842.41	3.4396
2855.06	1.77297
2867.71	4.85157
2880.36	5.00823
2893.01	4.54313
2905.65	5.9272
2918.3	4.18198
2930.95	5.08786
2943.6	6.62573
2956.25	7.76491
2968.9	8.10916
2981.55	2.17594
2994.2	2.58882
3006.85	2.02911
3019.49	2.57269
3032.14	2.64864
3044.79	2.18517
3057.44	3.61962
3070.09	3.43745
3082.74	0.793403
3095.39	3.2148
3108.04	0.0737338
3120.68	2.24584
3133.33	2.77059
3145.98	1.91106
3158.63	3.07897
3171.28	0.418205
3183.93	5.37355
3196.58	1.73751
3209.23	4.44933
3221.875	2.84025
3234.52	1.17074
3247.17	0.0927317
3259.82	3.07848
3272.47	1.05289
3285.12	7.06533
3297.77	2.74015
3310.42	3.47498
3323.07	4.79642
3335.71	5.30397
3348.36	1.6815
3361.01	4.38464
3373.66	3.20711
3386.31	3.66512
3398.96	4.83483
3411.61	7.97127
3424.26	4.83941
3436.9	5.03276
3449.55	5.23483
3462.2	9.70424
3474.85	4.70698
3487.5	6.77593
3500.15	7.41015
3512.8	4.88195
3525.45	5.40343
3538.1	4.28223
3550.74	7.49917
3563.39	3.96238
3576.04	6.84396
3588.69	6.75686
3601.34	5.42092
3613.99	7.3887
3626.64	7.84302
3639.29	4.24054
3651.93	7.00359
3664.58	8.97691
3677.23	6.44306
3689.88	9.19258
3700	9.67893