File: Example Data/Raman/CNT - TIM/Raytheon/Al foil/2010/04-20-10/R1 - 25 microns - sideB.txt
300	93.1483
306.533	94.7999
313.067	93.9527
319.6	92.9574
326.134	89.6417
332.667	87.5164
339.201	89.463
345.734	84.8118
352.267	87.1323
358.801	90.3333
365.334	84.7026
371.868	84.6899
378.401	81.2909
384.935	82.2689
391.468	80
398.002	83.467
404.535	84.5808
411.068	79.3287
417.602	76.808
424.135	80.302
430.669	80.6761
437.202	76.1865
443.736	73.5649
450.269	75.7875
456.802	76.2157
463.336	69.6087
469.869	80.5263
476.403	73.8589
482.936	65.0648
489.47	72.5921
496.003	69.3425
502.536	69.0564
509.07	66.0447
515.603	64.1693
522.137	73.757
528.67	75.6581
535.204	67.274
541.737	68.3333
548.271	60.9227
554.804	61.4426
561.337	60.8477
567.871	64.9407
574.404	65.6667
580.938	70.0569
587.471	71.3333
594.005	73.4089
600.538	71.8861
607.071	72.6251
613.605	72.9526
620.138	70.2584
626.672	65.3865
633.205	75.1357
639.739	66.1061
646.272	78.6453
652.806	75.922
659.339	78.8304
665.872	73.5667
672.406	76.1794
678.939	82.9586
685.473	71.5999
692.006	82.0975
698.54	79.4313
705.073	76.7532
711.606	78.3428
718.14	78.9554
724.673	76.4235
731.207	81.7139
737.74	84.9857
744.274	87.4874
750.807	78.8266
757.341	91.6666
763.874	90.7909
770.407	92.4407
776.941	90.2596
783.474	89.101
790.008	98.8413
796.541	97.4232
803.075	103.461
809.608	91.808
816.141	92.4793
822.675	97.5118
829.208	89.6146
835.742	88.3596
842.275	105.373
848.809	96.1892
855.342	105.237
861.875	100.697
868.409	96.0552
874.942	97.8673
881.476	92.0686
888.009	90.9838
894.543	85.7595
901.076	86.4046
907.61	90.6887
914.143	91.6786
920.676	92.2145
927.21	83.9411
933.743	88.668
940.277	91.8108
946.81	78.2518
953.344	87.61
959.877	89.2246
966.41	87.5708
972.944	88.366
979.477	82.2226
986.011	80.2532
992.544	95.7907
999.078	91.1266
1005.61	89.8698
1012.14	93.9303
1018.68	98.8829
1025.21	98.4878
1031.74	100.141
1038.28	105.202
1044.81	117.896
1051.35	111.52
1057.88	108.975
1064.41	108.675
1070.95	112.348
1077.48	113.632
1084.01	122.271
1090.55	132.175
1097.08	126.504
1103.61	125.819
1110.15	130.129
1116.68	139.573
1123.21	133.644
1129.75	154.115
1136.28	156.484
1142.81	162.353
1149.35	175.676
1155.88	179.196
1162.41	182.048
1168.95	183.953
1175.48	177.829
1182.01	189.025
1188.55	194.885
1195.08	191.526
1201.61	195.804
1208.15	203.54
1214.68	221.368
1221.21	202.42
1227.75	221.4
1234.28	222.55
1240.81	234.101
1247.35	255.566
1253.88	272.433
1260.42	267.213
1266.95	280.723
1273.48	309.016
1280.02	321.667
1286.55	349.546
1293.08	366.965
1299.62	393
1306.15	420.095
1312.68	459.956
1319.22	489.402
1325.75	510.252
1332.28	542.82
1338.82	557.473
1345.35	581.877
1351.88	547.457
1358.42	542.831
1364.95	504.779
1371.48	489.115
1378.02	453.369
1384.55	425.7
1391.08	400.26
1397.62	373.788
1404.15	356.578
1410.68	338.227
1417.22	336.587
1423.75	330.564
1430.28	310.034
1436.82	299.252
1443.35	293.07
1449.88	295.385
1456.42	289.445
1462.95	273.185
1469.48	283.748
1476.02	292.649
1482.55	283.069
1489.09	283.476
1495.62	285.637
1502.15	296.663
1508.69	304.83
1515.22	295.738
1521.75	295.395
1528.29	322.864
1534.82	324.285
1541.35	344.328
1547.89	357.693
1554.42	390.447
1560.95	420.329
1567.49	448.695
1574.02	481.838
1580.55	519.959
1587.09	547.943
1593.62	573.89
1600.15	560.995
1606.69	547.077
1613.22	511.908
1619.75	463.062
1626.29	404.911
1632.82	343.705
1639.35	280.856
1645.89	226.566
1652.42	211.862
1658.95	183.853
1665.49	159.912
1672.02	141.208
1678.55	113.04
1685.09	99.269
1691.62	100.045
1698.16	94.331
1704.69	88.0144
1711.22	87.3309
1717.76	77.2282
1724.29	74.655
1730.82	76.9466
1737.36	69.2057
1743.89	69.4044
1750.42	68.4651
1756.96	72.4886
1763.49	69.085
1770.02	72.1051
1776.56	69.379
1783.09	67.5127
1789.62	68.6063
1796.16	72.3517
1802.69	69.721
1809.22	61.7413
1815.76	63.3089
1822.29	64.4681
1828.82	64.0497
1835.36	65.3376
1841.89	63.8315
1848.42	63.5467
1854.96	61.5574
1861.49	67.6705
1868.02	67.7132
1874.56	62.8683
1881.09	64.6807
1887.62	57.0964
1894.16	61.4385
1900.69	70.53
1907.23	58.0251
1913.76	70.6598
1920.29	61.2006
1926.83	70.3834
1933.36	66.0943
1939.89	62.7443
1946.43	63.9092
1952.96	61.9516
1959.49	58.3702
1966.03	67.6435
1972.56	57.9691
1979.09	59.8709
1985.63	63.535
1992.16	64.8742
1998.69	62.2114
2000	62.3333