File: Example Data/Raman/CNT - TIM/Raytheon/Al foil/2010/04-20-10/R1 - 25 microns - sideA.txt
300	92.185
306.533	99.7796
313.067	96.0121
319.6	93.5501
326.134	92.4946
332.667	91.3533
339.201	85.4989
345.734	101.51
352.267	91.0441
358.801	81.3659
365.334	83.8464
371.868	90.2791
378.401	85.6242
384.935	81.6894
391.468	81.4406
398.002	84.8449
404.535	83.9666
411.068	89.1878
417.602	80.2511
424.135	76.8339
430.669	82.0857
437.202	81.0533
443.736	78.4531
450.269	83.9726
456.802	80.3254
463.336	80.3462
469.869	77.042
476.403	80.9028
482.936	74.7408
489.47	78.4191
496.003	79.9331
502.536	72.5282
509.07	69.8876
515.603	68.5557
522.137	71.1142
528.67	67.0095
535.204	70.6469
541.737	59.7717
548.271	72.6338
554.804	75.7693
561.337	67.7184
567.871	72.3598
574.404	69.0009
580.938	79.3902
587.471	71.1146
594.005	71.0992
600.538	70.2095
607.071	74.5449
613.605	71.9353
620.138	72.1145
626.672	75.8274
633.205	77.7233
639.739	87.3958
646.272	83.792
652.806	89.1525
659.339	78.8246
665.872	77.1507
672.406	90.1284
678.939	84.5288
685.473	79.1331
692.006	79.5691
698.54	84.9084
705.073	77.8072
711.606	89.414
718.14	73.4938
724.673	83.892
731.207	79.8786
737.74	84.2413
744.274	93.7929
750.807	81.7087
757.341	99.5238
763.874	92.516
770.407	93.9673
776.941	86.7733
783.474	94.6264
790.008	96.2933
796.541	98.6841
803.075	95.2139
809.608	92.5113
816.141	97.6067
822.675	104.237
829.208	109.521
835.742	112.887
842.275	104.394
848.809	112.213
855.342	111.404
861.875	116.148
868.409	108.815
874.942	109.027
881.476	102.853
888.009	98.3495
894.543	95.3881
901.076	89.6041
907.61	94.9383
914.143	92.9403
920.676	91.6436
927.21	92.8881
933.743	90.339
940.277	88.5681
946.81	90.6582
953.344	99.4733
959.877	95.5694
966.41	95.35
972.944	98.2288
979.477	102.916
986.011	98.507
992.544	97.1725
999.078	105.082
1005.61	107.097
1012.14	111.714
1018.68	111.766
1025.21	110.967
1031.74	121.978
1038.28	125.257
1044.81	130.076
1051.35	127.832
1057.88	130.987
1064.41	127.003
1070.95	131.4
1077.48	147.448
1084.01	159.887
1090.55	158.027
1097.08	152.942
1103.61	163.587
1110.15	171.376
1116.68	168.35
1123.21	184.812
1129.75	184.107
1136.28	193.236
1142.81	192.821
1149.35	206.5
1155.88	223.712
1162.41	221.893
1168.95	218.552
1175.48	228.542
1182.01	235.426
1188.55	233.993
1195.08	247.455
1201.61	256.581
1208.15	249.139
1214.68	258.467
1221.21	279.834
1227.75	292.084
1234.28	284.588
1240.81	319.941
1247.35	314.273
1253.88	346.305
1260.42	349.087
1266.95	369.569
1273.48	393.417
1280.02	432.478
1286.55	450.071
1293.08	480.545
1299.62	520.291
1306.15	555.267
1312.68	604.372
1319.22	653.13
1325.75	698.237
1332.28	734.135
1338.82	771.938
1345.35	786.763
1351.88	792.018
1358.42	780.794
1364.95	755.198
1371.48	698.275
1378.02	640.417
1384.55	615.028
1391.08	576.779
1397.62	535.768
1404.15	512.003
1410.68	469.709
1417.22	443.492
1423.75	431.759
1430.28	422.962
1436.82	411.784
1443.35	403.434
1449.88	406.634
1456.42	394.056
1462.95	386.57
1469.48	386.946
1476.02	378.222
1482.55	383.485
1489.09	398.367
1495.62	396.304
1502.15	390.347
1508.69	396.499
1515.22	392.427
1521.75	411.092
1528.29	413.875
1534.82	422.789
1541.35	444.155
1547.89	463.657
1554.42	487.043
1560.95	521.68
1567.49	580.185
1574.02	607.56
1580.55	682.973
1587.09	724.505
1593.62	799.354
1600.15	783.72
1606.69	783.227
1613.22	748.627
1619.75	691.194
1626.29	611.566
1632.82	500.603
1639.35	410.834
1645.89	349.73
1652.42	312.092
1658.95	250.872
1665.49	222.333
1672.02	187.889
1678.55	152.657
1685.09	143.732
1691.62	133.905
1698.16	116.78
1704.69	111.572
1711.22	95.9678
1717.76	102.535
1724.29	97.3915
1730.82	84.3274
1737.36	86.1855
1743.89	83.3537
1750.42	85.2616
1756.96	81.1229
1763.49	74.6399
1770.02	77.8231
1776.56	80.6774
1783.09	77.4838
1789.62	72.455
1796.16	72.2772
1802.69	74.4868
1809.22	71.009
1815.76	79.6118
1822.29	73.2705
1828.82	69.279
1835.36	77.838
1841.89	70.8748
1848.42	79.2534
1854.96	68.0368
1861.49	71.0345
1868.02	77.2015
1874.56	68.1512
1881.09	69.9517
1887.62	68.7586
1894.16	76.1306
1900.69	65.2982
1907.23	74.1735
1913.76	61.0276
1920.29	68.9463
1926.83	70.6846
1933.36	72.9046
1939.89	77.2557
1946.43	65.441
1952.96	79.473
1959.49	71.009
1966.03	77.1426
1972.56	70.6616
1979.09	73.8795
1985.63	77.7398
1992.16	71.9182
1998.69	67.2265
2000	66.4081