File: Example Data/Raman/CNT - TIM/Raytheon/Al foil/2010/04-20-10/R1 - 15 microns - sideB.txt
300	71.5925
306.533	75.2957
313.067	69.9285
319.6	78.4964
326.134	67.753
332.667	60.2518
339.201	63.2819
345.734	57.2217
352.267	68.1531
358.801	61.0457
365.334	63.2974
371.868	69.3992
378.401	62.0283
384.935	62.091
391.468	59.5618
398.002	65.0891
404.535	62.5619
411.068	61.277
417.602	56.1624
424.135	54.3042
430.669	62.7715
437.202	60.9601
443.736	63.7526
450.269	53.1774
456.802	53.9255
463.336	60.4509
469.869	59.41
476.403	54.5239
482.936	60.2685
489.47	51.3657
496.003	49.1719
502.536	52.0471
509.07	51.7165
515.603	50.055
522.137	46.1142
528.67	44.6771
535.204	53.2944
541.737	48.8949
548.271	46.5237
554.804	50.2983
561.337	55.5762
567.871	49.0513
574.404	52.3324
580.938	51.641
587.471	51.8269
594.005	47.8886
600.538	48.552
607.071	50.7979
613.605	51.8405
620.138	58.1025
626.672	56.671
633.205	51.2202
639.739	61.4673
646.272	61.4373
652.806	64.6366
659.339	54.7306
665.872	50.5419
672.406	66.4105
678.939	62.0771
685.473	61.4667
692.006	53.2742
698.54	57.8104
705.073	68.2695
711.606	59.5587
718.14	60.3922
724.673	61.4235
731.207	61.9119
737.74	55.227
744.274	62.101
750.807	66.2534
757.341	68.2143
763.874	61.8512
770.407	68.5167
776.941	61.7172
783.474	72.7051
790.008	67.02
796.541	73.0267
803.075	67.1542
809.608	77.6772
816.141	71.6367
822.675	72.7328
829.208	76.8981
835.742	80.2724
842.275	77.3448
848.809	85.4173
855.342	83.4044
861.875	79.2659
868.409	74.542
874.942	77.8673
881.476	75.0296
888.009	72.5308
894.543	69.4438
901.076	67.131
907.61	68.0807
914.143	64.1432
920.676	67.4337
927.21	62.391
933.743	61.004
940.277	65.325
946.81	69.8943
953.344	61.1734
959.877	65.0716
966.41	65.7166
972.944	73.0327
979.477	70.7599
986.011	64.554
992.544	65.9245
999.078	73.3148
1005.61	69.8766
1012.14	70.4805
1018.68	75.1312
1025.21	78.691
1031.74	82.6016
1038.28	79.5014
1044.81	80.9881
1051.35	78.4645
1057.88	87.3771
1064.41	95.2684
1070.95	85.3333
1077.48	89.6413
1084.01	88.8221
1090.55	93.0931
1097.08	99.3376
1103.61	101.2
1110.15	112.882
1116.68	109.144
1123.21	109.823
1129.75	117.168
1136.28	127.68
1142.81	138.665
1149.35	142.896
1155.88	140.393
1162.41	149.282
1168.95	164.934
1175.48	157.089
1182.01	157.725
1188.55	167.842
1195.08	165.691
1201.61	171.414
1208.15	183.127
1214.68	192.19
1221.21	184.229
1227.75	197.875
1234.28	216.299
1240.81	223.198
1247.35	224.865
1253.88	237.411
1260.42	252.533
1266.95	270.118
1273.48	290.682
1280.02	307.966
1286.55	326.22
1293.08	349.159
1299.62	379.945
1306.15	414.172
1312.68	439.947
1319.22	495.513
1325.75	544.6
1332.28	573.345
1338.82	598.738
1345.35	613.792
1351.88	628.697
1358.42	626.625
1364.95	572.309
1371.48	536.916
1378.02	500.679
1384.55	464.461
1391.08	437.192
1397.62	409.202
1404.15	377.096
1410.68	357.132
1417.22	346.973
1423.75	319.143
1430.28	303.434
1436.82	302.841
1443.35	291.533
1449.88	298.45
1456.42	283.416
1462.95	285.36
1469.48	277.566
1476.02	277.093
1482.55	280.262
1489.09	270.18
1495.62	278.338
1502.15	283.082
1508.69	265.809
1515.22	281.95
1521.75	287.841
1528.29	293.113
1534.82	316.362
1541.35	308.006
1547.89	342.814
1554.42	351.097
1560.95	404.565
1567.49	404.912
1574.02	440.931
1580.55	493.784
1587.09	538.648
1593.62	599.129
1600.15	624.415
1606.69	636.563
1613.22	619.367
1619.75	569.118
1626.29	516.992
1632.82	417.455
1639.35	339.964
1645.89	296.319
1652.42	236.966
1658.95	209.597
1665.49	170.849
1672.02	147.347
1678.55	114.961
1685.09	107.204
1691.62	92.6969
1698.16	82.6702
1704.69	73.2634
1711.22	74.005
1717.76	64.5481
1724.29	63.5568
1730.82	66.9585
1737.36	64.9036
1743.89	53.9614
1750.42	55.217
1756.96	51.7876
1763.49	51.3647
1770.02	58.4641
1776.56	50.9691
1783.09	53.5354
1789.62	50.4237
1796.16	52.8263
1802.69	49.1629
1809.22	49.0373
1815.76	54.939
1822.29	42.8685
1828.82	44.1773
1835.36	51.0007
1841.89	58.1252
1848.42	51.4139
1854.96	49.588
1861.49	52.6897
1868.02	49.6046
1874.56	52.8545
1881.09	51.7212
1887.62	45.7171
1894.16	51.5564
1900.69	50.3581
1907.23	46.5913
1913.76	48.9544
1920.29	48.0254
1926.83	53.7167
1933.36	53.2873
1939.89	52.2506
1946.43	45.6498
1952.96	53.1133
1959.49	53.222
1966.03	51.6917
1972.56	58.8103
1979.09	47.043
1985.63	53.1447
1992.16	46.1258
1998.69	55.5372
2000	58.4926