File: Example Data/Raman/CNT - TIM/Raytheon/Al foil/2010/04-20-10/R1 - 15 microns - sideA.txt
300	111.222
306.533	110.319
313.067	109.012
319.6	107.224
326.134	104.544
332.667	96.8458
339.201	102.461
345.734	103.659
352.267	104.163
358.801	98.4065
365.334	104.101
371.868	105.93
378.401	105.617
384.935	104.951
391.468	107.263
398.002	101.244
404.535	94.2511
411.068	93.3709
417.602	88.6793
424.135	101.529
430.669	91.7524
437.202	83.7599
443.736	92.3033
450.269	96.0488
456.802	97.7293
463.336	87.5684
469.869	95.8345
476.403	80.4284
482.936	88.6667
489.47	84.6033
496.003	84.895
502.536	85.0728
509.07	87.0447
515.603	86.3319
522.137	91.7903
528.67	82.0047
535.204	87.6073
541.737	84.8801
548.271	83.7353
554.804	82.7206
561.337	90.2816
567.871	83.3822
574.404	76.9332
580.938	85.0927
587.471	82.5345
594.005	81.4051
600.538	86.6567
607.071	85.4834
613.605	82.1882
620.138	85.1558
626.672	89.2639
633.205	83.045
639.739	86.3115
646.272	85.1879
652.806	82.5443
659.339	89.5436
665.872	85.067
672.406	96.8463
678.939	98.3885
685.473	88.8666
692.006	92.0983
698.54	96.4376
705.073	95.2085
711.606	98.5279
718.14	94.2335
724.673	92.4129
731.207	89.5517
737.74	105.879
744.274	99.5657
750.807	100.036
757.341	109.405
763.874	92.4821
770.407	100.699
776.941	101.651
783.474	96.3414
790.008	97.1227
796.541	101
803.075	98.6157
809.608	99.5724
816.141	100.663
822.675	105.539
829.208	109.547
835.742	112.632
842.275	117.507
848.809	107.271
855.342	112.683
861.875	113.3
868.409	110.044
874.942	108.518
881.476	107.578
888.009	100.923
894.543	97.7987
901.076	103.357
907.61	96.9178
914.143	104.958
920.676	89.9019
927.21	108.782
933.743	93.3409
940.277	98.2511
946.81	99.5936
953.344	104.037
959.877	104.289
966.41	91.55
972.944	102.431
979.477	94.5102
986.011	104.282
992.544	110.63
999.078	111.231
1005.61	108.351
1012.14	117.38
1018.68	110.465
1025.21	118.524
1031.74	111.832
1038.28	128.012
1044.81	131.147
1051.35	132.764
1057.88	137.757
1064.41	132.219
1070.95	133.69
1077.48	135.797
1084.01	145.958
1090.55	147.56
1097.08	145.404
1103.61	151.619
1110.15	163.097
1116.68	161.978
1123.21	157.285
1129.75	184.803
1136.28	180.506
1142.81	174.104
1149.35	192.348
1155.88	179.943
1162.41	211.829
1168.95	211.5
1175.48	223.932
1182.01	217.776
1188.55	216.101
1195.08	231.553
1201.61	230.66
1208.15	234.384
1214.68	249.686
1221.21	252.754
1227.75	252.776
1234.28	268.913
1240.81	282.492
1247.35	296.999
1253.88	303.795
1260.42	314.927
1266.95	338.989
1273.48	354.18
1280.02	373.974
1286.55	398.658
1293.08	432.423
1299.62	447.475
1306.15	466.661
1312.68	519.905
1319.22	552.392
1325.75	552.679
1332.28	582.744
1338.82	608.458
1345.35	607.041
1351.88	585.724
1358.42	559.345
1364.95	539.189
1371.48	535.778
1378.02	510.59
1384.55	467.442
1391.08	447.862
1397.62	428.641
1404.15	405.321
1410.68	395.773
1417.22	375.705
1423.75	359.821
1430.28	358.442
1436.82	344.933
1443.35	338.908
1449.88	335.135
1456.42	332.292
1462.95	332.768
1469.48	335.342
1476.02	324.236
1482.55	344.181
1489.09	330.923
1495.62	346.301
1502.15	332.51
1508.69	344.082
1515.22	340.142
1521.75	352.148
1528.29	363.752
1534.82	367.517
1541.35	396.37
1547.89	406.048
1554.42	427.958
1560.95	470.292
1567.49	492.95
1574.02	556.313
1580.55	579.177
1587.09	606.876
1593.62	629.503
1600.15	618.914
1606.69	603.019
1613.22	560.074
1619.75	489.363
1626.29	427.5
1632.82	349.535
1639.35	309.615
1645.89	256.342
1652.42	232.084
1658.95	194.784
1665.49	179.854
1672.02	155.201
1678.55	137.313
1685.09	137.508
1691.62	127.186
1698.16	116.108
1704.69	108.101
1711.22	96.0644
1717.76	103.356
1724.29	96.4044
1730.82	89.4697
1737.36	93.8099
1743.89	91.0325
1750.42	91.0446
1756.96	90.3657
1763.49	86.2641
1770.02	89.447
1776.56	83.2823
1783.09	90.6378
1789.62	84.9696
1796.16	90.85
1802.69	83.4888
1809.22	85.1435
1815.76	80.0366
1822.29	83.067
1828.82	79.1348
1835.36	77.995
1841.89	80.3214
1848.42	82.9206
1854.96	79.9576
1861.49	70.1611
1868.02	83.907
1874.56	86.6781
1881.09	83.5857
1887.62	83.4243
1894.16	77.5589
1900.69	76.0104
1907.23	79.5662
1913.76	75.5823
1920.29	80.3617
1926.83	79.4385
1933.36	77.6678
1939.89	76.832
1946.43	77.3569
1952.96	83.6535
1959.49	77.3702
1966.03	73.082
1972.56	80.3897
1979.09	76.9828
1985.63	77.4634
1992.16	79.088
1998.69	81.9029
2000	80.761