File: Example Data/Raman/CNT - TIM/Raytheon/Al foil/2010/04-20-10/R2 - 25 microns - sideA.txt
300	107.481
306.533	115.101
313.067	125.285
319.6	111.937
326.134	106.569
332.667	109.256
339.201	109.385
345.734	107.656
352.267	108.409
358.801	106.634
365.334	103.07
371.868	88.465
378.401	96.3758
384.935	90.0644
391.468	98.5082
398.002	88.2852
404.535	95.8464
411.068	86.6854
417.602	94.1013
424.135	95.1974
430.669	97.943
437.202	96.56
443.736	104.239
450.269	99.4619
456.802	96.8863
463.336	93.5669
469.869	90.7038
476.403	86.1914
482.936	86.6389
489.47	85.4079
496.003	85.4199
502.536	91.1385
509.07	88.0907
515.603	82.1645
522.137	83.7903
528.67	83.66
535.204	82.8435
541.737	79.5845
548.271	79.0744
554.804	84.8394
561.337	85.0065
567.871	81.992
574.404	92.0641
580.938	85.8816
587.471	86.6186
594.005	86.135
600.538	88.4671
607.071	83.3721
613.605	81.7471
620.138	84.0395
626.672	86.8111
633.205	83.6101
639.739	87.7194
646.272	83.1668
652.806	103.816
659.339	91.6027
665.872	92.8833
672.406	95.1538
678.939	96.0025
685.473	94.7333
692.006	96.9409
698.54	90.2417
705.073	96.1504
711.606	98.6572
718.14	95.7255
724.673	97.7283
731.207	100.599
737.74	103.047
744.274	102.42
750.807	107.162
757.341	99.6666
763.874	106.322
770.407	97.0537
776.941	98.0583
783.474	95.9115
790.008	104.561
796.541	111.397
803.075	115.658
809.608	110.852
816.141	106.753
822.675	111.987
829.208	110.062
835.742	104.14
842.275	105.857
848.809	114.24
855.342	121.492
861.875	108.949
868.409	110.365
874.942	106.106
881.476	115.392
888.009	97.3668
894.543	106.776
901.076	108.274
907.61	107.209
914.143	101.976
920.676	106.329
927.21	100.22
933.743	103
940.277	92.6543
946.81	103.7
953.344	96.86
959.877	98.641
966.41	113.983
972.944	105.614
979.477	100.51
986.011	100.887
992.544	108.692
999.078	105.581
1005.61	112.172
1012.14	116.133
1018.68	122.709
1025.21	120.02
1031.74	117.913
1038.28	121.679
1044.81	128.581
1051.35	132.113
1057.88	135.199
1064.41	131.921
1070.95	143.466
1077.48	152.851
1084.01	142.068
1090.55	141.733
1097.08	153.388
1103.61	141.286
1110.15	151.871
1116.68	161.406
1123.21	158.714
1129.75	166.494
1136.28	162.345
1142.81	170.739
1149.35	179.683
1155.88	193.445
1162.41	189.808
1168.95	196.474
1175.48	201.22
1182.01	193.896
1188.55	204.097
1195.08	203.116
1201.61	211.757
1208.15	236.79
1214.68	226.176
1221.21	237.79
1227.75	239.766
1234.28	238.645
1240.81	262.978
1247.35	280.006
1253.88	286.494
1260.42	304.181
1266.95	312.464
1273.48	330.847
1280.02	341.353
1286.55	372.266
1293.08	389.472
1299.62	419.621
1306.15	442.003
1312.68	489.791
1319.22	522.61
1325.75	534.637
1332.28	587.638
1338.82	607.458
1345.35	605.002
1351.88	593.872
1358.42	568.777
1364.95	540.389
1371.48	511.048
1378.02	485.067
1384.55	446.469
1391.08	422.245
1397.62	411.275
1404.15	389.463
1410.68	369.934
1417.22	353.707
1423.75	349.052
1430.28	331.466
1436.82	332.956
1443.35	306.783
1449.88	327.221
1456.42	314.701
1462.95	311.339
1469.48	318.03
1476.02	320.426
1482.55	317.325
1489.09	314.863
1495.62	312.903
1502.15	330.534
1508.69	319.423
1515.22	334.184
1521.75	336.717
1528.29	348.798
1534.82	359.607
1541.35	373.38
1547.89	403.424
1554.42	441.625
1560.95	477.673
1567.49	498.129
1574.02	548.01
1580.55	565.032
1587.09	582.011
1593.62	596.688
1600.15	593.788
1606.69	546.455
1613.22	512.82
1619.75	441.684
1626.29	384.736
1632.82	332.017
1639.35	291.526
1645.89	244.664
1652.42	204.43
1658.95	193.17
1665.49	171.836
1672.02	146.993
1678.55	135.755
1685.09	125.213
1691.62	104.451
1698.16	107.778
1704.69	104.239
1711.22	97
1717.76	92.7269
1724.29	88.3967
1730.82	94.28
1737.36	88.1947
1743.89	90.6364
1750.42	92.1298
1756.96	81.7286
1763.49	82.6824
1770.02	91.776
1776.56	88.1183
1783.09	74.6894
1789.62	79.2716
1796.16	80.1316
1802.69	71.869
1809.22	77.3603
1815.76	81.8842
1822.29	77.0041
1828.82	76.4515
1835.36	78.6652
1841.89	74.3333
1848.42	78.0529
1854.96	70.9638
1861.49	74.3909
1868.02	80.1006
1874.56	84.5132
1881.09	81.8006
1887.62	81.0442
1894.16	79.0076
1900.69	79.0631
1907.23	74.9246
1913.76	65.9419
1920.29	72.3982
1926.83	72.1551
1933.36	76.3399
1939.89	67.6867
1946.43	78.5994
1952.96	74.4466
1959.49	80.1572
1966.03	80.2407
1972.56	73.6154
1979.09	69.5399
1985.63	77.6098
1992.16	71.9623
1998.69	74.4229
2000	67.701