File: Example Data/Raman/CNT - TIM/Raytheon/Al foil/2010/11-22-10/Al - B22b - top.txt
100	69.0889
108.249	107.165
116.498	68.4157
124.747	52.8284
132.996	23.7547
141.246	32.8418
149.495	8.72589
157.744	14.4011
165.993	0.00547583
174.242	4.98503
182.491	5.1564
190.74	1.51309
198.989	10.0627
207.238	-6.34467
215.487	0.132071
223.737	-5.33923
231.986	2.0149
240.235	-5.12953
248.484	1.68517
256.733	9.06731
264.982	4.49779
273.231	-0.143065
281.48	-1.35611
289.729	2.87778
297.978	2.90268
306.228	1.47192
314.477	10.0366
322.726	1.76587
330.975	-0.161323
339.224	-6.57201
347.473	-1.82045
355.722	-9.25618
363.971	-7.43544
372.22	-2.59179
380.47	1.59529
388.719	-1.85648
396.968	-5.52213
405.217	1.63137
413.466	3.31856
421.715	-2.82995
429.964	16.073
438.213	3.05632
446.462	12.6942
454.711	10.1585
462.961	5.15078
471.21	-1.37993
479.459	-10.5076
487.708	1.08122
495.957	-6.18431
504.206	-4.91419
512.455	-4.72593
520.704	-15.7414
528.953	-6.84518
537.202	-11.4567
545.452	-8.90848
553.701	-3.50539
561.95	-3.98229
570.199	-2.83584
578.448	0.658685
586.697	-4.25578
594.946	-2.21064
603.195	-0.945127
611.444	5.74266
619.693	-3.07231
627.943	-2.04345
636.192	-0.144683
644.441	-6.092
652.69	13.0351
660.939	-0.459812
669.188	-0.434477
677.437	2.44364
685.686	-11.9723
693.935	-10.5539
702.185	-1.39949
710.434	-2.50916
718.683	-10.873
726.932	3.75067
735.181	-5.96402
743.43	-3.49683
751.679	3.69474
759.928	-7.15291
768.177	-4.53123
776.426	-5.60936
784.676	-6.15829
792.925	4.74415
801.174	3.79683
809.423	10.2973
817.672	8.93502
825.921	16.8348
834.17	9.59517
842.419	13.47
850.668	0.0120558
858.917	8.04803
867.167	3.01232
875.416	-0.815315
883.665	6.12407
891.914	-6.12189
900.163	-1.88413
908.412	-4.86299
916.661	1.50954
924.91	-5.97959
933.159	-4.72036
941.409	-6.49853
949.658	-4.4908
957.907	-0.131579
966.156	-5.68224
974.405	-10.3742
982.654	1.83832
990.903	-5.91438
999.152	-6.15522
1007.4	-7.72784
1015.65	10.8596
1023.9	9.92784
1032.15	14.2038
1040.4	5.81668
1048.65	0.662023
1056.9	-5.47772
1065.15	-0.672876
1073.39	2.74231
1081.64	-1.17559
1089.89	3.37932
1098.14	10.3154
1106.39	3.36234
1114.64	-8.27553
1122.89	19.2237
1131.14	14.0516
1139.39	28.3031
1147.64	41.5877
1155.89	40.4862
1164.13	57.4566
1172.38	58.5819
1180.63	59.4884
1188.88	60.1037
1197.13	62.4627
1205.38	88.2868
1213.63	78.7577
1221.88	90.9428
1230.13	107.937
1238.38	131.696
1246.63	144.466
1254.87	195.542
1263.12	210.224
1271.37	257.372
1279.62	282.584
1287.87	379.36
1296.12	389.002
1304.37	466.549
1312.62	546.695
1320.87	615.136
1329.12	675.68
1337.37	696.038
1345.61	678.411
1353.86	608.308
1362.11	549.839
1370.36	505.312
1378.61	421.946
1386.86	327.675
1395.11	234.542
1403.36	211.148
1411.61	156.687
1419.86	119.726
1428.11	92.3073
1436.35	52.8669
1444.6	41.6878
1452.85	38.0263
1461.1	17.3246
1469.35	4.12837
1477.6	6.47217
1485.85	-2.95421
1494.1	2.82955
1502.35	20.4307
1510.6	34.3008
1518.85	76.0636
1527.09	126.205
1535.34	171.156
1543.59	239.942
1551.84	291.016
1560.09	394.444
1568.34	508.126
1576.59	622.806
1584.84	704.745
1593.09	763.427
1601.34	761.914
1609.59	670.819
1617.83	539.034
1626.08	385.215
1634.33	267.853
1642.58	197.467
1650.83	130.059
1659.08	78.183
1667.33	34.6602
1675.58	18.3814
1683.83	12.3857
1692.08	2.57871
1700.33	10.1738
1708.58	5.16398
1716.82	6.30904
1725.07	2.42477
1733.32	-0.293601
1741.57	-1.40547
1749.82	-12.8282
1758.07	-13.1414
1766.32	-6.54189
1774.57	-6.40523
1782.82	-8.08544
1791.07	-18.3805
1799.32	-1.91762
1807.56	-8.94594
1815.81	-2.12719
1824.06	2.88223
1832.31	-3.09524
1840.56	-3.15494
1848.81	-10.7007
1857.06	-9.0736
1865.31	5.9377
1873.56	-9.59184
1881.81	-3.44881
1890.06	-2.10234
1898.3	-16.3104
1906.55	-1.13063
1914.8	-5.37795
1923.05	-2.99184
1931.3	-3.99574
1939.55	-5.45012
1947.8	-0.698411
1956.05	-3.42978
1964.3	-2.50045
1972.55	-7.49308
1980.8	-5.25208
1989.04	0.400214
1997.29	-2.772
2005.54	-4.70462
2013.79	0.143526
2022.04	4.74274
2030.29	0.342106
2038.54	-1.15259
2046.79	-2.99853
2055.04	-0.68603
2063.29	-1.23965
2071.54	-1.51975
2079.78	4.4548
2088.03	-0.487416
2096.28	1.61387
2104.53	-1.88791
2112.78	-0.346976
2121.03	-9.49597
2129.28	-8.63526
2137.53	-11.3249
2145.78	-11.1498
2154.03	-7.72123
2162.28	-9.20491
2170.52	-13.0823
2178.77	-9.14032
2187.02	-16.8036
2195.27	-21.7095
2203.52	-16.5784
2211.77	-16.9184
2220.02	-19.0656
2228.27	-22.6114
2236.52	-23.8812
2244.77	-28.153
2253.02	-27.0313
2261.27	-29.7542
2269.51	-20.3286
2277.76	-25.2806
2286.01	-27.1163
2294.26	-31.6303
2302.51	-20.1475
2310.76	-24.4465
2319.01	-33.5398
2327.26	-16.7531
2335.51	-28.3348
2343.76	-31.4957
2352.01	-32.4625
2360.25	-29.8109
2368.5	-32.3116
2376.75	-36.3532
2385	-30.6892
2393.25	-29.1738
2400	-38.9713