File: Example Data/Raman/CNT - TIM/Raytheon/Al foil/2010/11-22-10/Al - B22a - top.txt
100	85.0757
108.249	110.815
116.498	78.7608
124.747	50.7963
132.996	36.1849
141.246	30.4059
149.495	10.5624
157.744	11.4302
165.993	12.4373
174.242	-1.00347
182.491	3.82274
190.74	3.25501
198.989	1.67542
207.238	-3.62689
215.487	-0.571586
223.737	3.5524
231.986	-6.45076
240.235	-18.141
248.484	-7.62218
256.733	-4.97178
264.982	-10.9271
273.231	-2.49142
281.48	3.16842
289.729	-0.235206
297.978	-17.2857
306.228	-6.29235
314.477	0.776631
322.726	-5.55966
330.975	-0.842066
339.224	-5.37068
347.473	-2.02503
355.722	-2.64824
363.971	-4.55428
372.22	-9.70558
380.47	-2.49172
388.719	-3.66584
396.968	-3.80991
405.217	-0.621695
413.466	0.622929
421.715	3.73588
429.964	-1.66726
438.213	-0.182852
446.462	6.38041
454.711	10.2406
462.961	-3.82144
471.21	-9.63347
479.459	-1.77078
487.708	-3.64628
495.957	-1.87908
504.206	-2.91573
512.455	2.41609
520.704	3.67519
528.953	-4.36346
537.202	6.60882
545.452	1.63246
553.701	-8.24302
561.95	1.97635
570.199	-1.81015
578.448	-2.82618
586.697	-4.47618
594.946	-7.02116
603.195	5.95697
611.444	0.680781
619.693	1.21623
627.943	-1.01066
636.192	-1.54995
644.441	-11.7835
652.69	1.5476
660.939	3.50472
669.188	0.899286
677.437	0.151401
685.686	1.13323
693.935	-10.6577
702.185	8.54116
710.434	3.1845
718.683	11.1327
726.932	-0.431947
735.181	-1.27254
743.43	-2.2808
751.679	11.5186
759.928	12.4005
768.177	9.42827
776.426	7.17363
784.676	6.49933
792.925	9.38139
801.174	9.19735
809.423	7.4961
817.672	13.5245
825.921	3.8706
834.17	7.23535
842.419	9.02516
850.668	16.3525
858.917	6.12885
867.167	8.79349
875.416	-5.6802
883.665	15.1655
891.914	3.39644
900.163	-1.44082
908.412	7.75959
916.661	5.16467
924.91	1.33133
933.159	0.782197
941.409	6.42131
949.658	9.20227
957.907	3.20838
966.156	5.67174
974.405	-3.34951
982.654	-13.6516
990.903	-0.709439
999.152	-15.677
1007.4	-3.47723
1015.65	-12.4991
1023.9	-0.719102
1032.15	-2.3685
1040.4	-5.38327
1048.65	4.80535
1056.9	2.99356
1065.15	-0.120294
1073.39	-11.3846
1081.64	-7.1307
1089.89	-2.72344
1098.14	-6.82593
1106.39	1.15555
1114.64	-5.04859
1122.89	7.85719
1131.14	4.44565
1139.39	17.194
1147.64	18.5847
1155.89	45.327
1164.13	34.6853
1172.38	48.9553
1180.63	30.5597
1188.88	39.5937
1197.13	44.9683
1205.38	62.8426
1213.63	76.5568
1221.88	92.8614
1230.13	110.605
1238.38	134.081
1246.63	154.835
1254.87	160.368
1263.12	199.542
1271.37	229.686
1279.62	274.546
1287.87	337.388
1296.12	415.867
1304.37	456.086
1312.62	534.334
1320.87	592.306
1329.12	636.931
1337.37	657.357
1345.61	621.096
1353.86	589.326
1362.11	504.013
1370.36	459.821
1378.61	370.437
1386.86	302.309
1395.11	237.408
1403.36	184.516
1411.61	136.349
1419.86	110.206
1428.11	59.4121
1436.35	51.4407
1444.6	17.7493
1452.85	17.9531
1461.1	2.93711
1469.35	14.8237
1477.6	1.95294
1485.85	-4.785
1494.1	4.35088
1502.35	47.7998
1510.6	77.8097
1518.85	100.7
1527.09	124.818
1535.34	204.391
1543.59	246.927
1551.84	319.539
1560.09	407.019
1568.34	524.051
1576.59	611.055
1584.84	668.965
1593.09	715.144
1601.34	687.529
1609.59	586.475
1617.83	457.055
1626.08	322.13
1634.33	232.731
1642.58	160.67
1650.83	106.414
1659.08	57.6039
1667.33	33.0097
1675.58	16.0765
1683.83	2.1247
1692.08	1.61444
1700.33	19.3513
1708.58	9.66847
1716.82	1.58034
1725.07	3.0574
1733.32	-4.93665
1741.57	2.47527
1749.82	6.33088
1758.07	-0.751241
1766.32	1.776
1774.57	-0.945546
1782.82	1.20646
1791.07	1.21813
1799.32	-4.34538
1807.56	6.21833
1815.81	2.22184
1824.06	-7.5749
1832.31	-5.31509
1840.56	-3.56888
1848.81	0.698201
1857.06	-5.84359
1865.31	-0.186295
1873.56	-0.101347
1881.81	2.66826
1890.06	-2.88964
1898.3	-6.68505
1906.55	6.63693
1914.8	8.42095
1923.05	7.76562
1931.3	4.57876
1939.55	-0.266542
1947.8	7.41673
1956.05	6.10513
1964.3	0.312917
1972.55	4.47878
1980.8	4.03398
1989.04	11.319
1997.29	3.74022
2005.54	0.473762
2013.79	3.72411
2022.04	1.05872
2030.29	4.7508
2038.54	4.87505
2046.79	3.91678
2055.04	1.41456
2063.29	-2.99529
2071.54	-3.39076
2079.78	1.29283
2088.03	-2.66056
2096.28	-2.46986
2104.53	-2.67408
2112.78	-0.0453805
2121.03	-4.17459
2129.28	-1.49467
2137.53	0.673716
2145.78	0.823156
2154.03	-2.84054
2162.28	-5.31104
2170.52	-5.87501
2178.77	-5.80524
2187.02	-2.84024
2195.27	-5.80285
2203.52	-2.26693
2211.77	-4.61667
2220.02	-0.778871
2228.27	-2.47367
2236.52	-5.68777
2244.77	3.36546
2253.02	6.04899
2261.27	-3.70353
2269.51	-3.56201
2277.76	-0.220795
2286.01	-3.81217
2294.26	-0.180413
2302.51	8.44431
2310.76	-4.16329
2319.01	2.44357
2327.26	17.0743
2335.51	0.0332657
2343.76	-0.64815
2352.01	4.72446
2360.25	-2.57066
2368.5	0.11171
2376.75	9.53323
2385	5.16161
2393.25	8.09444
2400	11.3901