File: Example Data/Raman/CNT - TIM/Raytheon/Al foil/2010/11-22-10/Al batch 22b - bottom_1.txt
100	88.6102
108.249	136.055
116.498	94.4795
124.747	78.312
132.996	50.8285
141.246	60.9801
149.495	41.9684
157.744	22.9143
165.993	29.7274
174.242	27.0826
182.491	14.3188
190.74	26.8924
198.989	26.0623
207.238	-0.0404589
215.487	5.33092
223.737	5.77889
231.986	-0.0742788
240.235	11.3006
248.484	5.24897
256.733	2.44854
264.982	-1.13075
273.231	8.68518
281.48	2.71379
289.729	2.97566
297.978	6.89746
306.228	9.45879
314.477	12.5764
322.726	-3.87559
330.975	2.14235
339.224	5.08638
347.473	1.42392
355.722	1.01748
363.971	-8.77026
372.22	-4.97001
380.47	12.6245
388.719	-10.0033
396.968	-5.07094
405.217	6.01509
413.466	1.49572
421.715	-13.3412
429.964	4.56463
438.213	-6.46504
446.462	3.57252
454.711	-3.92334
462.961	3.21514
471.21	-0.872032
479.459	-14.3514
487.708	-6.29533
495.957	-8.0007
504.206	-0.122152
512.455	-9.86155
520.704	-8.31438
528.953	-12.5108
537.202	-10.6163
545.452	-3.016
553.701	-2.93575
561.95	-7.14924
570.199	1.44693
578.448	1.89188
586.697	-12.5005
594.946	0.771706
603.195	-1.8832
611.444	-6.65175
619.693	-2.18054
627.943	-6.65762
636.192	-2.51896
644.441	-0.630911
652.69	-1.04892
660.939	-10.9463
669.188	-9.53079
677.437	-13.6569
685.686	-17.9564
693.935	-17.6925
702.185	-8.6959
710.434	-7.11262
718.683	-12.8039
726.932	-8.70826
735.181	-8.47375
743.43	-4.61372
751.679	2.3686
759.928	1.95134
768.177	-10.7274
776.426	-7.30015
784.676	-10.4566
792.925	-2.08054
801.174	2.00673
809.423	8.64223
817.672	1.99052
825.921	1.89472
834.17	-0.284203
842.419	16.4018
850.668	11.6106
858.917	6.81988
867.167	9.97852
875.416	-6.02024
883.665	9.39947
891.914	1.55898
900.163	5.60288
908.412	10.7689
916.661	6.6913
924.91	8.28453
933.159	11.2727
941.409	14.027
949.658	9.72007
957.907	6.65346
966.156	11.6661
974.405	3.65398
982.654	11.1984
990.903	5.77245
999.152	4.46371
1007.4	0.062901
1015.65	-4.93106
1023.9	-2.03364
1032.15	-1.44669
1040.4	9.24903
1048.65	-7.24367
1056.9	2.04849
1065.15	-5.79057
1073.39	-2.7206
1081.64	-2.75632
1089.89	-2.80455
1098.14	5.45215
1106.39	3.43331
1114.64	8.27534
1122.89	10.8812
1131.14	27.0411
1139.39	25.5523
1147.64	33.0016
1155.89	47.9088
1164.13	31.1116
1172.38	36.5671
1180.63	35.1456
1188.88	49.5809
1197.13	61.2642
1205.38	73.5457
1213.63	82.6137
1221.88	100.63
1230.13	131.493
1238.38	140.615
1246.63	164.139
1254.87	211.307
1263.12	214.068
1271.37	296.394
1279.62	315.64
1287.87	371.013
1296.12	446.894
1304.37	531.176
1312.62	585.933
1320.87	703.985
1329.12	748.77
1337.37	769.584
1345.61	745.161
1353.86	677.114
1362.11	598.311
1370.36	505.642
1378.61	426.715
1386.86	348.588
1395.11	282.336
1403.36	214.372
1411.61	166.867
1419.86	116.06
1428.11	85.4126
1436.35	52.5382
1444.6	45.3688
1452.85	16.398
1461.1	9.92849
1469.35	1.79203
1477.6	-3.37766
1485.85	-0.564549
1494.1	13.1296
1502.35	46.6774
1510.6	62.9361
1518.85	114.899
1527.09	147.143
1535.34	209.128
1543.59	286.92
1551.84	373.451
1560.09	485.111
1568.34	584.457
1576.59	722.862
1584.84	776.573
1593.09	832.158
1601.34	786.198
1609.59	686.967
1617.83	531.011
1626.08	384.04
1634.33	266.339
1642.58	190.626
1650.83	118.221
1659.08	70.8483
1667.33	40.8593
1675.58	21.8642
1683.83	21.3805
1692.08	9.73427
1700.33	3.66652
1708.58	-2.59704
1716.82	-4.47658
1725.07	-5.96737
1733.32	-5.65299
1741.57	-5.33119
1749.82	-10.3021
1758.07	-0.0522362
1766.32	-1.89233
1774.57	1.25959
1782.82	4.96768
1791.07	2.06108
1799.32	-4.50373
1807.56	-0.923935
1815.81	-8.24085
1824.06	5.94587
1832.31	-9.09005
1840.56	-3.75387
1848.81	-1.69058
1857.06	-2.09705
1865.31	11.995
1873.56	-7.66963
1881.81	-10.9208
1890.06	-7.51167
1898.3	-16.7406
1906.55	-11.7191
1914.8	-13.209
1923.05	-6.093
1931.3	-10.1247
1939.55	-5.06547
1947.8	-4.47546
1956.05	-10.3297
1964.3	-3.52844
1972.55	-7.75451
1980.8	-5.628
1989.04	1.26259
1997.29	2.9907
2005.54	7.01458
2013.79	2.48121
2022.04	1.78309
2030.29	2.43864
2038.54	-3.23349
2046.79	0.577433
2055.04	-4.5054
2063.29	-7.18648
2071.54	-8.05275
2079.78	-0.0757739
2088.03	-2.19395
2096.28	-8.93926
2104.53	-9.42531
2112.78	-8.3532
2121.03	1.82441
2129.28	-7.02049
2137.53	-0.720904
2145.78	-0.453021
2154.03	-3.37911
2162.28	-6.26648
2170.52	-2.37792
2178.77	0.570811
2187.02	-2.08396
2195.27	0.358088
2203.52	-8.93491
2211.77	-3.45075
2220.02	-3.64637
2228.27	3.25256
2236.52	2.90366
2244.77	-5.94192
2253.02	3.43725
2261.27	-1.0342
2269.51	-3.27471
2277.76	-1.6535
2286.01	0.371283
2294.26	-0.228633
2302.51	2.97348
2310.76	-2.97775
2319.01	-1.96118
2327.26	17.0533
2335.51	0.468266
2343.76	-10.2572
2352.01	10.3221
2360.25	13.1006
2368.5	4.3918
2376.75	5.8436
2385	6.10056
2393.25	12.7013
2400	17.1394