File: Example Data/Raman/CNT - TIM/Raytheon/Al foil/2010/11-22-10/CNT batch 22a - bottom_1.txt
100	54.8238
108.249	91.7633
116.498	71.3399
124.747	42.0911
132.996	31.5412
141.246	24.5236
149.495	12.4433
157.744	8.07853
165.993	0.379256
174.242	9.80544
182.491	7.03324
190.74	-2.13061
198.989	-1.26683
207.238	5.72508
215.487	1.32886
223.737	8.65361
231.986	3.92682
240.235	6.70969
248.484	1.93196
256.733	4.58405
264.982	7.80317
273.231	9.8921
281.48	10.7893
289.729	4.03488
297.978	8.49909
306.228	-0.388478
314.477	-2.16115
322.726	6.94286
330.975	5.21381
339.224	3.3048
347.473	4.28945
355.722	1.71722
363.971	3.9239
372.22	3.80892
380.47	6.57662
388.719	5.48794
396.968	3.61319
405.217	5.22058
413.466	0.836343
421.715	12.3791
429.964	5.8632
438.213	3.74729
446.462	14.2442
454.711	8.12476
462.961	11.1332
471.21	15.3607
479.459	10.7829
487.708	8.91319
495.957	9.9994
504.206	-2.00398
512.455	8.57722
520.704	7.16702
528.953	4.16397
537.202	1.16636
545.452	4.75213
553.701	2.97203
561.95	2.53816
570.199	0.489606
578.448	-0.616574
586.697	-0.258041
594.946	7.58206
603.195	-7.00339
611.444	-4.25971
619.693	3.86335
627.943	-3.3422
636.192	-1.28126
644.441	-1.13454
652.69	-6.69554
660.939	2.90904
669.188	-2.10754
677.437	-9.80365
685.686	-10.6541
693.935	-9.88459
702.185	-1.8412
710.434	-3.73832
718.683	-13.6591
726.932	-1.42857
735.181	-5.5001
743.43	4.43576
751.679	-3.46432
759.928	1.52559
768.177	-4.62639
776.426	1.49976
784.676	1.49934
792.925	7.91413
801.174	-6.64558
809.423	7.12178
817.672	10.1342
825.921	10.4253
834.17	7.70081
842.419	6.09717
850.668	12.8069
858.917	-1.10875
867.167	-4.54321
875.416	2.25059
883.665	-3.93736
891.914	-10.4624
900.163	1.2579
908.412	-0.161364
916.661	0.269303
924.91	-2.78944
933.159	-5.17083
941.409	-2.65491
949.658	-9.35186
957.907	-9.87346
966.156	-7.18994
974.405	-14.3285
982.654	-13.6609
990.903	-6.09585
999.152	-0.246632
1007.4	-2.62006
1015.65	8.51648
1023.9	-6.87611
1032.15	6.71956
1040.4	-7.56283
1048.65	2.29355
1056.9	-7.72494
1065.15	-2.2019
1073.39	0.765939
1081.64	-5.36061
1089.89	0.597913
1098.14	-5.34653
1106.39	-12.4511
1114.64	-9.44781
1122.89	-4.16
1131.14	-1.9777
1139.39	3.4186
1147.64	7.56459
1155.89	12.2431
1164.13	8.02919
1172.38	14.8606
1180.63	23.1446
1188.88	22.6077
1197.13	21.9489
1205.38	25.5638
1213.63	29.0806
1221.88	45.4788
1230.13	61.0624
1238.38	88.4988
1246.63	93.9928
1254.87	124.33
1263.12	147.944
1271.37	174.255
1279.62	208.844
1287.87	246.461
1296.12	315.267
1304.37	360.585
1312.62	423.897
1320.87	510.415
1329.12	526.768
1337.37	568.322
1345.61	543.905
1353.86	515.504
1362.11	441.886
1370.36	367.71
1378.61	271.787
1386.86	219.481
1395.11	187.524
1403.36	142.011
1411.61	96.8009
1419.86	62.8829
1428.11	40.5097
1436.35	45.2826
1444.6	29.4867
1452.85	26.5831
1461.1	-11.2387
1469.35	-0.129911
1477.6	6.63154
1485.85	-16.1362
1494.1	15.8767
1502.35	28.2905
1510.6	28.8073
1518.85	58.3436
1527.09	95.8981
1535.34	147.607
1543.59	210.532
1551.84	288.357
1560.09	363.102
1568.34	455.343
1576.59	528.375
1584.84	601.769
1593.09	604.836
1601.34	580.604
1609.59	509.202
1617.83	394.196
1626.08	307.026
1634.33	219.208
1642.58	140.827
1650.83	101.92
1659.08	56.5317
1667.33	36.2948
1675.58	17.56
1683.83	15.6881
1692.08	7.80454
1700.33	2.36963
1708.58	4.23806
1716.82	-2.80905
1725.07	-7.93137
1733.32	1.0213
1741.57	1.27244
1749.82	1.40737
1758.07	10.2521
1766.32	10.5156
1774.57	7.22327
1782.82	-0.544365
1791.07	-1.35489
1799.32	-2.51341
1807.56	0.881513
1815.81	-9.09167
1824.06	-4.23517
1832.31	-5.46181
1840.56	-8.2534
1848.81	-3.82282
1857.06	-10.2554
1865.31	3.77928
1873.56	3.2124
1881.81	-0.589325
1890.06	6.3168
1898.3	0.00122833
1906.55	-1.74062
1914.8	-5.37457
1923.05	-9.66959
1931.3	-4.69201
1939.55	-8.37186
1947.8	-2.20422
1956.05	-4.53193
1964.3	-7.2271
1972.55	0.0974274
1980.8	-9.15662
1989.04	0.673271
1997.29	-13.5751
2005.54	-6.76215
2013.79	-4.94096
2022.04	-0.228683
2030.29	1.03358
2038.54	-12.6037
2046.79	-3.5079
2055.04	2.19496
2063.29	-0.561768
2071.54	-2.61565
2079.78	1.46233
2088.03	-2.56297
2096.28	-3.2856
2104.53	-1.64671
2112.78	-0.925613
2121.03	-2.28113
2129.28	1.47002
2137.53	-0.949982
2145.78	-0.834846
2154.03	-1.75871
2162.28	4.18478
2170.52	2.4096
2178.77	1.20515
2187.02	3.01413
2195.27	2.00439
2203.52	5.17734
2211.77	6.80491
2220.02	5.31667
2228.27	1.23363
2236.52	7.94917
2244.77	8.45163
2253.02	10.4109
2261.27	5.52324
2269.51	5.74516
2277.76	10.2635
2286.01	15.9935
2294.26	4.55987
2302.51	16.8825
2310.76	8.48921
2319.01	19.9623
2327.26	27.0354
2335.51	14.6255
2343.76	17.8773
2352.01	20.152
2360.25	15.3147
2368.5	20.705
2376.75	18.4133
2385	19.009
2393.25	18.5228
2400	26.9997