File: Example Data/Raman/CNT - TIM/Raytheon/FeSi adhesion/Test 6/FeSi2-T6c-0Al-hSi - aligned region -_1.txt
100	75.1463
110.002	84.1128
120.005	66.4976
130.007	65.4677
140.01	68.1944
150.012	50.3512
160.015	49.5738
170.017	54.257
180.02	52.27
190.022	48.5307
200.025	50.2062
210.027	52.482
220.03	49.1321
230.032	54.1822
240.034	51.9179
250.037	51.401
260.039	59.857
270.042	157.224
280.044	52.031
290.047	54.1292
300.049	48.8492
310.052	46.2389
320.054	42.7409
330.057	42.1264
340.059	45.255
350.062	42.6276
360.064	44.5487
370.067	37.9182
380.069	40.4549
390.071	40.6132
400.074	40.9398
410.076	37.5186
420.079	41.8819
430.081	42.9689
440.084	36.6136
450.086	35.7479
460.089	37.235
470.091	34.7862
480.094	34.3375
490.096	32.4656
500.099	35.8967
510.101	33.2574
520.103	36.2797
530.106	28.7345
540.108	29.1021
550.111	31.7874
560.113	32.0996
570.116	36.1167
580.118	30.9231
590.121	28.7473
600.123	37.4492
610.126	31.6088
620.128	31.1773
630.131	36.1959
640.133	35.4623
650.135	34.4872
660.138	34.1099
670.14	37.0151
680.143	35.6319
690.145	36.1117
700.148	34.1055
710.15	35.5816
720.153	36.9851
730.155	36.5016
740.158	37.0334
750.16	42.0163
760.163	39.8563
770.165	44.6015
780.168	41.0311
790.17	39.2451
800.172	45.5193
810.175	44.1642
820.177	43.7168
830.18	48.4875
840.182	49.1003
850.185	51.5843
860.187	48.4809
870.19	41.8293
880.192	41.2527
890.195	40.5495
900.197	37.8658
910.2	33.9141
920.202	37.8363
930.204	34.6628
940.207	32.7852
950.209	34.244
960.212	34.4496
970.214	31.6198
980.217	32.3433
990.219	32.1187
1000.22	32.7212
1010.22	39.939
1020.23	37.173
1030.23	41.5818
1040.23	35.5769
1050.23	42.3199
1060.24	45.1205
1070.24	36.0211
1080.24	41.9003
1090.24	45.303
1100.25	42.9165
1110.25	45.5765
1120.25	40.4171
1130.25	39.6366
1140.26	43.5387
1150.26	44.7328
1160.26	46.4289
1170.26	48.1922
1180.27	51.0281
1190.27	51.1891
1200.27	56.0214
1210.27	58.5441
1220.28	59.9084
1230.28	60.5976
1240.28	68.5784
1250.28	69.8952
1260.29	76.8391
1270.29	91.9182
1280.29	93.6841
1290.29	116.798
1300.3	128.461
1310.3	160.019
1320.3	200.391
1330.3	258.999
1340.31	278.279
1350.31	257.794
1360.31	208.526
1370.31	173.422
1380.32	132.164
1390.32	113.469
1400.32	110.631
1410.32	86.1617
1420.33	86.5455
1430.33	76.4527
1440.33	74.0419
1450.33	78.4182
1460.34	76.2266
1470.34	80.5958
1480.34	76.3253
1490.34	79.9566
1500.34	81.7901
1510.35	85.4768
1520.35	100.572
1530.35	109.41
1540.35	131.525
1550.36	165.24
1560.36	224.292
1570.36	291.053
1580.36	305.377
1590.37	280.735
1600.37	250.434
1610.37	218.679
1620.37	175.243
1630.38	125.059
1640.38	89.7669
1650.38	66.8708
1660.38	50.6
1670.39	41.5134
1680.39	39.1002
1690.39	32.3132
1700.39	27.3192
1710.4	26.4547
1720.4	31.725
1730.4	29.5518
1740.4	27.4678
1750.41	24.9417
1760.41	25.373
1770.41	29.4591
1780.41	25.2
1790.42	23.8664
1800.42	26.5505
1810.42	23.2977
1820.42	24.1713
1830.43	24.1104
1840.43	22.5523
1850.43	22.8607
1860.43	21.6826
1870.44	23.9167
1880.44	23.8014
1890.44	22.2
1900.44	25.6037
1910.45	22.4163
1920.45	23.9421
1930.45	23.5474
1940.45	24.6803
1950.46	25.0484
1960.46	23.1706
1970.46	25.3133
1980.46	22.9355
1990.47	23.4351
2000.47	19.761
2010.47	23.0476
2020.47	23.2673
2030.48	23.2287
2040.48	22.2145
2050.48	27.3784
2060.48	22.9258
2070.49	22.8149
2080.49	22.6111
2090.49	21.2145
2100.49	22.0617
2110.5	21.3556
2120.5	20.8519
2130.5	16.2321
2140.5	20.9797
2150.51	21.6628
2160.51	19.1167
2170.51	22.4599
2180.51	21.4321
2190.51	21.6256
2200.52	22.0066
2210.52	21.0938
2220.52	23.0103
2230.52	23.5368
2240.53	23.6023
2250.53	21.8969
2260.53	23.2242
2270.53	21.2145
2280.54	19.4394
2290.54	24.0809
2300.54	23.5827
2310.54	20.4866
2320.55	23.5717
2330.55	38.1453
2340.55	23.748
2350.55	24.5493
2360.56	24.8359
2370.56	24.0801
2380.56	26.4181
2390.56	26.1509
2400.57	28.4865
2410.57	33.5777
2420.57	32.3562
2430.57	36.2176
2440.58	36.6394
2450.58	35.738
2460.58	36.9943
2470.58	34.1275
2480.59	37.8534
2490.59	38.0012
2500.59	35.1515
2510.59	33.2518
2520.6	34.3559
2530.6	33.6043
2540.6	39.4838
2550.6	37.7333
2560.61	46.7199
2570.61	44.9715
2580.61	55.6994
2590.61	58.0363
2600.62	67.0644
2610.62	71.4797
2620.62	83.6077
2630.62	102.648
2640.63	121.089
2650.63	134.638
2660.63	153.214
2670.63	169.49
2680.64	167.743
2690.64	162.068
2700.64	146.293
2710.64	122.964
2720.65	109.834
2730.65	86.7546
2740.65	77.8151
2750.65	66.1429
2760.66	61.2164
2770.66	51.1532
2780.66	50.5136
2790.66	47.7858
2800.67	40.6414
2810.67	43.7722
2820.67	40.9031
2830.67	40.1905
2840.68	43.3017
2850.68	44.9913
2860.68	46.3748
2870.68	44.6006
2880.68	40.955
2890.69	45.9207
2900.69	46.6984
2910.69	53.6646
2920.69	47.4192
2930.7	53.3947
2940.7	44.566
2950.7	42.51
2960.7	42.8814
2970.71	39.8109
2980.71	38.8002
2990.71	32.672
3000	35.2496