File: Example Data/Raman/CNT - TIM/Raytheon/FeSi adhesion/Test 6/FeSi2-T6b-0Al-hSi - aligned region - _3.txt
200	291.98
206.159	297.324
212.318	304.924
218.477	310.29
224.636	317.361
230.796	316.701
236.955	317.698
243.114	318.216
249.273	327.195
255.432	328.783
261.591	333.266
267.75	329.985
273.909	324.824
280.068	318.71
286.228	299.58
292.387	332.816
298.546	310.768
304.705	302.834
310.864	276.807
317.023	275.949
323.182	273.311
329.341	255.184
335.5	261.494
341.66	256.68
347.819	253.3
353.978	262.435
360.137	250.768
366.296	246.502
372.455	239.619
378.614	245.039
384.773	237.322
390.932	229.941
397.092	250.382
403.251	247.473
409.41	236.015
415.569	226.68
421.728	236.108
427.887	240.574
434.046	235.965
440.205	224.875
446.364	228.601
452.524	215.466
458.683	213.376
464.842	211.856
471.001	213.113
477.16	206.382
483.319	198.642
489.478	194.259
495.637	191.715
501.796	208.682
507.956	218.246
514.115	297.856
520.274	1363.76
526.433	489.196
532.592	246.537
538.751	213.85
544.91	197.339
551.069	184.789
557.228	182.488
563.388	182.583
569.547	175.503
575.706	191.888
581.865	189.815
588.024	192.039
594.183	185.535
600.342	191.808
606.501	187.143
612.66	192.142
618.82	189.726
624.979	188.297
631.138	191.07
637.297	194.954
643.456	199.763
649.615	201.79
655.774	200.25
661.933	201.958
668.092	201.462
674.252	211.236
680.411	215.083
686.57	204.617
692.729	214.666
698.888	210.994
705.047	215.606
711.206	216.696
717.365	212.254
723.524	216.845
729.683	224.498
735.843	232.924
742.002	224.984
748.161	241.328
754.32	237.17
760.479	239.749
766.638	234.7
772.797	236.391
778.956	259.848
785.115	248.976
791.275	245.178
797.434	268.791
803.593	266.093
809.752	266.595
815.911	264.611
822.07	269.425
828.229	275.924
834.388	271.755
840.547	285.257
846.707	296.798
852.866	292.578
859.025	284.324
865.184	279.183
871.343	270.319
877.502	259.623
883.661	261.66
889.82	224.425
895.979	233.001
902.139	217.333
908.298	214.358
914.457	218.515
920.616	215.292
926.775	241.562
932.934	219.808
939.093	235.175
945.252	243.243
951.411	247.08
957.571	246.279
963.73	244.86
969.889	242.728
976.048	236.636
982.207	246.437
988.366	243.15
994.525	236.093
1000.68	222.773
1006.84	229.387
1013	235.284
1019.16	234.442
1025.32	234.006
1031.48	238.828
1037.64	244.5
1043.8	243.464
1049.96	256.882
1056.12	247.983
1062.28	258.323
1068.43	264.556
1074.59	266.297
1080.75	264.212
1086.91	284.332
1093.07	295.363
1099.23	295.745
1105.39	300.509
1111.55	292.874
1117.71	307.532
1123.87	311.439
1130.03	312.962
1136.18	314.799
1142.34	308.113
1148.5	315.934
1154.66	323.615
1160.82	332.81
1166.98	337.287
1173.14	340.223
1179.3	355.861
1185.46	362.395
1191.62	376.273
1197.78	370.311
1203.93	380.551
1210.09	401.262
1216.25	410.025
1222.41	432.783
1228.57	446.512
1234.73	461.587
1240.89	488.79
1247.05	503.452
1253.21	538.077
1259.37	545.128
1265.53	611.271
1271.69	645.057
1277.84	699.292
1284	759.212
1290.16	818.133
1296.32	948.114
1302.48	1050.93
1308.64	1189.92
1314.8	1410.37
1320.96	1657.61
1327.12	1942.85
1333.28	2237.42
1339.44	2403.35
1345.59	2469.85
1351.75	2326.97
1357.91	2086.91
1364.07	1806.66
1370.23	1528.39
1376.39	1336.27
1382.55	1120.07
1388.71	1013.48
1394.87	864.504
1401.03	795.907
1407.19	740.879
1413.34	692.605
1419.5	636.642
1425.66	638.203
1431.82	586.11
1437.98	595.522
1444.14	568.54
1450.3	562.664
1456.46	579.802
1462.62	569.948
1468.78	580.236
1474.94	569.471
1481.09	573.258
1487.25	580.475
1493.41	585.236
1499.57	591.856
1505.73	607.915
1511.89	617.103
1518.05	660.105
1524.21	690.418
1530.37	745.143
1536.53	819.753
1542.69	953.35
1548.85	1106.87
1555	1346.5
1561.16	1609.18
1567.32	1895.63
1573.48	2153.22
1579.64	2274.69
1585.8	2250.46
1591.96	2125.35
1598.12	1996.51
1604.28	1893.83
1610.44	1766.5
1616.6	1613.73
1622.75	1400.62
1628.91	1101.73
1635.07	858.159
1641.23	673.514
1647.39	541.201
1653.55	438.775
1659.71	386.472
1665.87	315.608
1672.03	289.571
1678.19	264.831
1684.35	242.832
1690.5	227.761
1696.66	223.362
1702.82	205.171
1708.98	198.632
1715.14	190.631
1721.3	188.837
1727.46	183.026
1733.62	172.226
1739.78	166.945
1745.94	164.548
1752.1	160.13
1758.25	166.335
1764.41	152.07
1770.57	159.116
1776.73	157.143
1782.89	159.305
1789.05	157.69
1795.21	151.511
1801.37	155.766
1807.53	151.448
1813.69	155.748
1819.85	153.294
1826.01	150.736
1832.16	149.814
1838.32	140.855
1844.48	159.191
1850.64	143.855
1856.8	149.199
1862.96	156.578
1869.12	157.424
1875.28	145.719
1881.44	146.961
1887.6	148.563
1893.76	152.632
1899.91	148.417
1906.07	146.786
1912.23	144.732
1918.39	134.389
1924.55	143.28
1930.71	139.958
1936.87	145.722
1943.03	145.336
1949.19	141.842
1955.35	138.88
1961.51	138.508
1967.66	140.213
1973.82	138.408
1979.98	132.446
1986.14	146.525
1992.3	143.291
1998.46	137.969
2000	142.966