File: Example Data/Raman/CNT - TIM/Raytheon/FeSi adhesion/Test 6/FeSi2-T6b-0Al-hSi - NOT aligned region - _4.txt
200	339.645
206.159	367.68
212.318	442.425
218.477	427.947
224.636	606.972
230.796	864.825
236.955	644.904
243.114	453.588
249.273	450.961
255.432	420.116
261.591	440.289
267.75	487.086
273.909	473.447
280.068	432.346
286.228	506.655
292.387	448.691
298.546	436.789
304.705	496.318
310.864	424.669
317.023	403.953
323.182	370.822
329.341	372.225
335.5	355.211
341.66	351.912
347.819	335.575
353.978	337.882
360.137	325.852
366.296	319.008
372.455	314.768
378.614	324.943
384.773	310.421
390.932	311.626
397.092	300.478
403.251	301.47
409.41	308.778
415.569	296.895
421.728	301.07
427.887	300.56
434.046	299.743
440.205	278.654
446.364	278.087
452.524	274.311
458.683	245.41
464.842	261.181
471.001	265.201
477.16	255.1
483.319	258.666
489.478	271.555
495.637	293.384
501.796	326.631
507.956	471.528
514.115	1079.53
520.274	10112.4
526.433	2861.95
532.592	770.906
538.751	482.73
544.91	367.522
551.069	328.465
557.228	295.309
563.388	257.402
569.547	260.217
575.706	255.234
581.865	242.939
588.024	241.69
594.183	241.851
600.342	245.951
606.501	241.028
612.66	259.068
618.82	268.166
624.979	261.227
631.138	254.826
637.297	245.635
643.456	255.225
649.615	259.167
655.774	268.43
661.933	273.39
668.092	275.729
674.252	269.166
680.411	272.398
686.57	262.933
692.729	254.127
698.888	246.127
705.047	249.452
711.206	242.402
717.365	249.279
723.524	261.626
729.683	264.025
735.843	257.124
742.002	267.082
748.161	273.574
754.32	281.75
760.479	282.74
766.638	290.195
772.797	287.948
778.956	286.967
785.115	295.141
791.275	306.113
797.434	289.459
803.593	300.551
809.752	318.293
815.911	321.992
822.07	314.579
828.229	325.528
834.388	320.743
840.547	331.38
846.707	326.695
852.866	326.617
859.025	329.015
865.184	311.861
871.343	306.223
877.502	296.666
883.661	296.401
889.82	295.038
895.979	273.009
902.139	265.783
908.298	273.046
914.457	265.796
920.616	261.242
926.775	287.911
932.934	364.111
939.093	459.833
945.252	515.67
951.411	521.588
957.571	489.334
963.73	500.248
969.889	497.19
976.048	521.56
982.207	508.033
988.366	479.507
994.525	382.182
1000.68	333.84
1006.84	305.458
1013	289.78
1019.16	285.267
1025.32	273.905
1031.48	277.751
1037.64	262.417
1043.8	269.882
1049.96	273.218
1056.12	269.553
1062.28	276.731
1068.43	269.611
1074.59	271.453
1080.75	276.825
1086.91	291.405
1093.07	287.056
1099.23	292.02
1105.39	310.433
1111.55	300.762
1117.71	304.881
1123.87	334.557
1130.03	314.872
1136.18	334.363
1142.34	332.113
1148.5	345.837
1154.66	367.488
1160.82	372.332
1166.98	381.849
1173.14	399.503
1179.3	404.865
1185.46	432.471
1191.62	439.813
1197.78	436.156
1203.93	466.51
1210.09	487.139
1216.25	487.785
1222.41	523.998
1228.57	531.735
1234.73	553.935
1240.89	569.429
1247.05	602.567
1253.21	650.372
1259.37	683.415
1265.53	722.793
1271.69	738.322
1277.84	816.623
1284	879.499
1290.16	947.763
1296.32	1052.97
1302.48	1182.03
1308.64	1316.9
1314.8	1436.91
1320.96	1704.39
1327.12	1924.28
1333.28	2160.41
1339.44	2370.34
1345.59	2517.75
1351.75	2555.32
1357.91	2377.18
1364.07	2161.98
1370.23	1901.52
1376.39	1641.48
1382.55	1453.51
1388.71	1249.45
1394.87	1127.27
1401.03	985.596
1407.19	917.997
1413.34	861.415
1419.5	800.103
1425.66	747.601
1431.82	737.284
1437.98	687.09
1444.14	695.635
1450.3	686.273
1456.46	694.405
1462.62	692.967
1468.78	706.105
1474.94	708.019
1481.09	691.144
1487.25	732.478
1493.41	732.483
1499.57	740.268
1505.73	753.59
1511.89	772.553
1518.05	786.963
1524.21	798.629
1530.37	850.177
1536.53	908.522
1542.69	977.656
1548.85	1081.2
1555	1196.45
1561.16	1324.09
1567.32	1520.56
1573.48	1807.91
1579.64	2135.12
1585.8	2428.45
1591.96	2625.61
1598.12	2472.31
1604.28	2304.63
1610.44	2166.92
1616.6	1941.36
1622.75	1723.1
1628.91	1396.51
1635.07	1102.42
1641.23	866.147
1647.39	685.164
1653.55	555.316
1659.71	446.261
1665.87	375.773
1672.03	331.353
1678.19	301.75
1684.35	277.436
1690.5	251.36
1696.66	248.261
1702.82	233.621
1708.98	210.819
1715.14	213.166
1721.3	208.345
1727.46	189.522
1733.62	191.527
1739.78	181.917
1745.94	186.926
1752.1	179.737
1758.25	176.038
1764.41	170.023
1770.57	160.056
1776.73	163.209
1782.89	157.658
1789.05	165.044
1795.21	151.968
1801.37	150.08
1807.53	150.186
1813.69	153.974
1819.85	147.64
1826.01	144.322
1832.16	141.72
1838.32	135.969
1844.48	139.246
1850.64	141.896
1856.8	133.7
1862.96	139.188
1869.12	138.936
1875.28	139.532
1881.44	143.278
1887.6	147.687
1893.76	139.829
1899.91	142.887
1906.07	148.403
1912.23	169.285
1918.39	185.327
1924.55	170.813
1930.71	174.636
1936.87	173.542
1943.03	162.727
1949.19	160.707
1955.35	149.831
1961.51	154.713
1967.66	150.587
1973.82	133.696
1979.98	149.364
1986.14	142.637
1992.3	137.488
1998.46	137.708
2000	136.66