File: Example Data/Raman/CNT - TIM/Raytheon/Al foil/2011/02-10-11/Batch 26 - bottom_1.txt
300	78.5363
306.115	106.103
312.23	91.0774
318.345	100.272
324.46	79.9706
330.576	100.9
336.691	82.0235
342.806	71.9302
348.921	81.6448
355.036	77.0072
361.151	66.2675
367.266	71.2107
373.381	60.1549
379.496	70.1937
385.612	68.9979
391.727	62.0801
397.842	48.6927
403.957	66.2774
410.072	51.4245
416.187	62.0983
422.302	40.6584
428.417	36.2589
434.532	40.7324
440.647	46.306
446.763	32.0085
452.878	42.4939
458.993	31.4385
465.108	39.0953
471.223	25.3841
477.338	13.9266
483.453	11.8926
489.568	-4.48941
495.683	13.1953
501.799	0.996548
507.914	3.42568
514.029	-10.5074
520.144	-11.1726
526.259	-14.5747
532.374	-14.452
538.489	-7.34684
544.604	-5.47376
550.719	-1.14946
556.835	-2.76214
562.95	-7.06334
569.065	-23.0612
575.18	-1.65065
581.295	-5.21026
587.41	-2.88932
593.525	-5.99287
599.64	-8.75032
605.755	-5.26214
611.87	-0.269718
617.986	-6.49136
624.101	16.5158
630.216	-6.95407
636.331	4.6355
642.446	19.0422
648.561	-7.01196
654.676	22.5076
660.791	3.82689
666.906	0.633306
673.022	8.27345
679.137	-1.68455
685.252	-0.387023
691.367	11.0508
697.482	8.33401
703.597	15.2283
709.712	12.9648
715.827	17.1946
721.942	11.2505
728.058	16.1383
734.173	18.6599
740.288	32.5819
746.403	26.6857
752.518	17.6712
758.633	33.3663
764.748	26.099
770.863	30.5467
776.978	28.2291
783.094	40.7076
789.209	51.449
795.324	63.652
801.439	42.4874
807.554	50.3538
813.669	57.8638
819.784	72.0309
825.899	56.8831
832.014	76.1199
838.13	57.743
844.245	61.7218
850.36	73.3286
856.475	63.0801
862.59	52.9349
868.705	42.8037
874.82	40.9253
880.935	28.5415
887.05	21.193
893.165	8.97225
899.281	12.6697
905.396	11.0718
911.511	-4.55402
917.626	2.82204
923.741	1.76612
929.856	3.6424
935.971	9.45875
942.086	-15.9608
948.201	-27.2087
954.317	-24.3381
960.432	-19.3415
966.547	-41.6627
972.662	-50.9557
978.777	-49.7767
984.892	-49.5588
991.007	-57.9719
997.122	-55.0874
1003.24	-71.4572
1009.35	-56.8776
1015.47	-51.8209
1021.58	-52.0959
1027.7	-55.6547
1033.81	-56.6485
1039.93	-45.294
1046.04	-49.8998
1052.16	-47.1023
1058.27	-55.948
1064.39	-53.889
1070.5	-43.615
1076.62	-42.0782
1082.73	-46.915
1088.85	-29.0388
1094.96	-34.1257
1101.08	-36.7628
1107.19	-23.7379
1113.31	-20.7965
1119.42	-15.5906
1125.54	-14.8993
1131.65	7.17218
1137.77	12.2179
1143.88	19.5776
1150	35.839
1156.12	17.3723
1162.23	46.302
1168.35	31.4432
1174.46	20.997
1180.58	41.2295
1186.69	69.0645
1192.81	22.8888
1198.92	43.8752
1205.04	77.6028
1211.15	71.7527
1217.27	75.7475
1223.38	99.7155
1229.5	129.196
1235.61	151.689
1241.73	180.925
1247.84	196.18
1253.96	228.349
1260.07	276.354
1266.19	325.22
1272.3	393.781
1278.42	443.676
1284.53	542.365
1290.65	610.409
1296.76	714.513
1302.88	839.707
1308.99	934.415
1315.11	1083.43
1321.22	1170.41
1327.34	1360.02
1333.45	1443.36
1339.57	1436.32
1345.68	1423.29
1351.8	1368.91
1357.91	1233.9
1364.03	1124.19
1370.14	930.628
1376.26	842.975
1382.37	704.16
1388.49	612.66
1394.6	476.369
1400.72	367.942
1406.83	325.818
1412.95	249.011
1419.06	192.637
1425.18	166.736
1431.29	143.378
1437.41	97.6784
1443.53	59.1312
1449.64	41.3957
1455.76	33.434
1461.87	21.0559
1467.99	-11.171
1474.1	12.5104
1480.22	26.8125
1486.33	70.1169
1492.45	90.6293
1498.56	131.684
1504.68	144.687
1510.79	175.047
1516.91	215.708
1523.02	258.227
1529.14	344.033
1535.25	434.126
1541.37	530.91
1547.48	638.577
1553.6	789.841
1559.71	908.791
1565.83	1069.94
1571.94	1252.53
1578.06	1415.02
1584.17	1541.27
1590.29	1634.28
1596.4	1606.68
1602.52	1566.1
1608.63	1441.89
1614.75	1259.89
1620.86	1051.82
1626.98	844.525
1633.09	654.468
1639.21	493.485
1645.32	372.592
1651.44	256.464
1657.55	186.219
1663.67	116.148
1669.78	77.2723
1675.9	43.3489
1682.01	28.6144
1688.13	21.721
1694.24	6.87753
1700.36	4.90292
1706.47	-0.643179
1712.59	1.71533
1718.71	2.75502
1724.82	0.367626
1730.94	1.00648
1737.05	-11.808
1743.17	2.02429
1749.28	-0.0739057
1755.4	-6.69214
1761.51	-8.09181
1767.63	-13.6709
1773.74	-11.8351
1779.86	-8.87563
1785.97	-10.4689
1792.09	-13.72
1798.2	-17.3943
1804.32	-11.8543
1810.43	-10.8222
1816.55	-12.7721
1822.66	-5.99555
1828.78	-19.358
1834.89	-20.7752
1841.01	-16.9357
1847.12	-1.72171
1853.24	-7.59882
1859.35	-16.6095
1865.47	-22.0219
1871.58	-8.28098
1877.7	-5.85061
1883.81	-3.38221
1889.93	-6.42258
1896.04	-9.01194
1902.16	-7.22538
1908.27	-7.2908
1914.39	-8.2604
1920.5	-3.16841
1926.62	-7.28837
1932.73	-3.32106
1938.85	-0.0986752
1944.96	-7.87905
1951.08	-14.9931
1957.19	-7.50892
1963.31	-2.159
1969.42	-10.784
1975.54	1.59841
1981.65	3.13535
1987.77	9.13789
1993.88	-0.88939
2000	-0.840052