File: Example Data/Raman/CNT - TIM/Raytheon/Al foil/2011/02-10-11/Batch 25 - top.txt
300	87.8465
306.115	104.794
312.23	89.634
318.345	82.7375
324.46	80.5881
330.576	95.2648
336.691	88.9898
342.806	81.1125
348.921	75.3313
355.036	73.3601
361.151	67.1397
367.266	68.7986
373.381	66.3095
379.496	68.9725
385.612	57.4636
391.727	70.7873
397.842	54.883
403.957	62.362
410.072	55.9786
416.187	52.2578
422.302	51.4308
428.417	50.0901
434.532	55.3268
440.647	49.2796
446.763	36.5709
452.878	36.3033
458.993	33.1316
465.108	47.3519
471.223	32.509
477.338	28.0184
483.453	22.0687
489.568	14.1326
495.683	15.0055
501.799	16.0746
507.914	5.10293
514.029	2.02529
520.144	-3.26368
526.259	-4.85133
532.374	1.09565
538.489	-7.03957
544.604	3.44765
550.719	-4.08781
556.835	2.85145
562.95	0.734923
569.065	-9.64701
575.18	-8.79993
581.295	4.46698
587.41	-4.0496
593.525	-9.13224
599.64	-2.27436
605.755	11.2941
611.87	3.55602
617.986	5.24754
624.101	14.5025
630.216	4.86051
636.331	9.95014
642.446	-9.98842
648.561	11.5304
654.676	11.6819
660.791	14.5023
666.906	10.6147
673.022	4.70271
679.137	11.3618
685.252	13.3232
691.367	8.48169
697.482	20.0652
703.597	11.3792
709.712	15.917
715.827	9.07082
721.942	15.8149
728.058	27.1351
734.173	29.6358
740.288	31.1018
746.403	38.642
752.518	26.9953
758.633	41.1229
764.748	36.3516
770.863	41.8669
776.978	36.1985
783.094	35.7178
789.209	47.2951
795.324	37.193
801.439	60.4268
807.554	50.8251
813.669	53.769
819.784	64.7759
825.899	69.8864
832.014	62.7974
838.13	65.8911
844.245	70.5362
850.36	68.3131
856.475	64.0807
862.59	47.9187
868.705	45.9192
874.82	31.1407
880.935	34.3811
887.05	23.3978
893.165	14.7355
899.281	21.5355
905.396	0.822186
911.511	-3.45563
917.626	11.4503
923.741	-3.54282
929.856	1.5922
935.971	-5.33569
942.086	4.54117
948.201	-4.41768
954.317	2.21198
960.432	3.88602
966.547	-12.5527
972.662	-5.33139
978.777	-9.4547
984.892	-13.3257
991.007	-10.7464
997.122	3.26779
1003.24	-12.815
1009.35	-21.2215
1015.47	-12.7062
1021.58	-15.8557
1027.7	2.49879
1033.81	-14.9398
1039.93	-0.606011
1046.04	0.89203
1052.16	-7.37803
1058.27	-11.8605
1064.39	-8.19235
1070.5	-11.07
1076.62	-3.58441
1082.73	-2.0015
1088.85	-0.38472
1094.96	-14.1968
1101.08	-1.26899
1107.19	5.90264
1113.31	0.571206
1119.42	-2.2561
1125.54	-0.895823
1131.65	17.5
1137.77	11.3769
1143.88	17.6611
1150	18.258
1156.12	41.8752
1162.23	30.4787
1168.35	26.8392
1174.46	27.3341
1180.58	40.3689
1186.69	33.7015
1192.81	42.6512
1198.92	41.3643
1205.04	68.7881
1211.15	58.5755
1217.27	63.1902
1223.38	81.7488
1229.5	100.809
1235.61	127.076
1241.73	136.712
1247.84	176.974
1253.96	206.192
1260.07	225.5
1266.19	270.782
1272.3	329.945
1278.42	380.559
1284.53	453.432
1290.65	525.625
1296.76	610.041
1302.88	699.246
1308.99	816.723
1315.11	945.322
1321.22	1095.57
1327.34	1190.99
1333.45	1276.72
1339.57	1360.23
1345.68	1316.45
1351.8	1211.95
1357.91	1131.13
1364.03	988.301
1370.14	858.824
1376.26	744.574
1382.37	629.495
1388.49	507.808
1394.6	446.326
1400.72	353.483
1406.83	292.987
1412.95	235.062
1419.06	172.005
1425.18	152.629
1431.29	118.063
1437.41	105.408
1443.53	62.5111
1449.64	44.7372
1455.76	45.9634
1461.87	4.63391
1467.99	17.4453
1474.1	-3.22164
1480.22	19.4967
1486.33	17.8019
1492.45	54.4334
1498.56	95.8685
1504.68	123.056
1510.79	161.36
1516.91	177.856
1523.02	229.831
1529.14	309.735
1535.25	385.62
1541.37	458.837
1547.48	600.947
1553.6	727.332
1559.71	837.029
1565.83	985.212
1571.94	1143.16
1578.06	1281.56
1584.17	1376.63
1590.29	1392.78
1596.4	1370.33
1602.52	1327.5
1608.63	1195.82
1614.75	1059.58
1620.86	882.041
1626.98	708.113
1633.09	566.215
1639.21	422.555
1645.32	301.21
1651.44	222.278
1657.55	139.351
1663.67	87.8511
1669.78	47.4264
1675.9	23.6582
1682.01	8.94874
1688.13	-3.28049
1694.24	-5.28355
1700.36	0.60571
1706.47	-4.03201
1712.59	3.98898
1718.71	-2.75573
1724.82	-0.738898
1730.94	3.51429
1737.05	0.743784
1743.17	-5.91318
1749.28	0.830931
1755.4	-11.076
1761.51	-6.5212
1767.63	-0.0419774
1773.74	-6.65115
1779.86	-10.555
1785.97	-2.05153
1792.09	-1.92413
1798.2	-5.45592
1804.32	-7.62135
1810.43	-14.5808
1816.55	-13.869
1822.66	-9.62869
1828.78	-7.4994
1834.89	7.6313
1841.01	4.57857
1847.12	13.7951
1853.24	2.60926
1859.35	4.90236
1865.47	8.03528
1871.58	2.67688
1877.7	-7.01643
1883.81	1.45505
1889.93	4.13242
1896.04	3.85145
1902.16	10.5518
1908.27	3.25145
1914.39	10.7148
1920.5	9.96553
1926.62	0.574078
1932.73	6.13476
1938.85	6.61563
1944.96	7.35545
1951.08	-2.15191
1957.19	6.65674
1963.31	8.98229
1969.42	13.7478
1975.54	15.3992
1981.65	12.5851
1987.77	11.4938
1993.88	5.82242
2000	15.0927