File: Example Data/Raman/CNT - TIM/Raytheon/Al foil/2011/02-10-11/Batch 27 - bottom_1.txt
300	379.087
306.115	395.454
312.23	392.051
318.345	406.594
324.46	393.458
330.576	376.363
336.691	378.48
342.806	368.616
348.921	358.64
355.036	371.601
361.151	365.987
367.266	364.542
373.381	357.585
379.496	361.767
385.612	353.122
391.727	354.54
397.842	340.928
403.957	350.122
410.072	353.087
416.187	345.998
422.302	349.692
428.417	333.826
434.532	351.554
440.647	346.235
446.763	334.962
452.878	320.128
458.993	307.585
465.108	300.628
471.223	315.569
477.338	314.281
483.453	316.61
489.568	293.368
495.683	292.199
501.799	289.25
507.914	292.475
514.029	295.747
520.144	296.981
526.259	291.149
532.374	287.397
538.489	292.584
544.604	286.861
550.719	278.745
556.835	288.423
562.95	279.624
569.065	292.116
575.18	300.162
581.295	299.306
587.41	297.782
593.525	289.29
599.64	285.262
605.755	295.715
611.87	305.287
617.986	291.832
624.101	287.432
630.216	306.09
636.331	301.101
642.446	314.475
648.561	300.51
654.676	300.508
660.791	303.306
666.906	319.394
673.022	309.293
679.137	307.69
685.252	314.577
691.367	298.605
697.482	314.099
703.597	324.216
709.712	313.261
715.827	317.592
721.942	326.209
728.058	327.151
734.173	336.869
740.288	312.732
746.403	339.909
752.518	352.231
758.633	346.147
764.748	338.384
770.863	355.309
776.978	362.908
783.094	354.334
789.209	351.426
795.324	369.504
801.439	368.407
807.554	382.211
813.669	382.763
819.784	387.158
825.899	385.63
832.014	398.615
838.13	391.526
844.245	396.139
850.36	394.61
856.475	386.141
862.59	381.226
868.705	368.536
874.82	368.369
880.935	369.997
887.05	366.005
893.165	337.312
899.281	359.125
905.396	356.432
911.511	343.717
917.626	330.715
923.741	340.717
929.856	329.032
935.971	353.75
942.086	343.306
948.201	350.7
954.317	349.39
960.432	346.076
966.547	342.139
972.662	353.287
978.777	354.482
984.892	380.172
991.007	379.721
997.122	373.61
1003.24	382.172
1009.35	409.759
1015.47	406.844
1021.58	421.552
1027.7	438.514
1033.81	456.246
1039.93	481.303
1046.04	484.242
1052.16	491.471
1058.27	500.317
1064.39	505.744
1070.5	500.294
1076.62	540.604
1082.73	545.458
1088.85	545.743
1094.96	565.939
1101.08	581.357
1107.19	601.527
1113.31	593.193
1119.42	606.551
1125.54	644.505
1131.65	654.376
1137.77	660.544
1143.88	680.983
1150	714.474
1156.12	729.992
1162.23	728.73
1168.35	735.614
1174.46	767.351
1180.58	784.71
1186.69	762.1
1192.81	804.689
1198.92	817.727
1205.04	836.634
1211.15	872.917
1217.27	905.185
1223.38	932.095
1229.5	945.093
1235.61	1012.71
1241.73	1050.87
1247.84	1084.76
1253.96	1135.53
1260.07	1201.05
1266.19	1242.04
1272.3	1320.63
1278.42	1395.51
1284.53	1500.79
1290.65	1619.96
1296.76	1683.03
1302.88	1819.41
1308.99	1954.5
1315.11	2055.41
1321.22	2221.29
1327.34	2287.18
1333.45	2342.55
1339.57	2351.48
1345.68	2309.92
1351.8	2224.78
1357.91	2120.15
1364.03	2013.86
1370.14	1888.58
1376.26	1778.54
1382.37	1705.58
1388.49	1594.75
1394.6	1525.92
1400.72	1401.45
1406.83	1401.32
1412.95	1335.87
1419.06	1298.5
1425.18	1251.22
1431.29	1234
1437.41	1197.18
1443.53	1204.42
1449.64	1212.13
1455.76	1204.26
1461.87	1191.57
1467.99	1214.97
1474.1	1196.07
1480.22	1186.34
1486.33	1203.96
1492.45	1202.5
1498.56	1200.84
1504.68	1195.83
1510.79	1248.06
1516.91	1249.91
1523.02	1300.83
1529.14	1350.24
1535.25	1385.68
1541.37	1466.29
1547.48	1575.91
1553.6	1711.29
1559.71	1810.65
1565.83	1949.34
1571.94	2092.01
1578.06	2188.31
1584.17	2241.89
1590.29	2239.47
1596.4	2154.83
1602.52	2044.6
1608.63	1856.86
1614.75	1653.21
1620.86	1424.19
1626.98	1217.875
1633.09	1054.83
1639.21	919.007
1645.32	787.217
1651.44	682.239
1657.55	602.826
1663.67	487.328
1669.78	479.545
1675.9	437.899
1682.01	402.321
1688.13	378.984
1694.24	360.442
1700.36	342.77
1706.47	334.274
1712.59	319.478
1718.71	303.276
1724.82	293.919
1730.94	286.203
1737.05	283.948
1743.17	281.597
1749.28	281.814
1755.4	273.024
1761.51	265.02
1767.63	267.029
1773.74	255.358
1779.86	253.873
1785.97	254.707
1792.09	252.971
1798.2	246.442
1804.32	254.856
1810.43	251.602
1816.55	255.558
1822.66	244.024
1828.78	249.574
1834.89	239.765
1841.01	236.931
1847.12	235.543
1853.24	231.548
1859.35	236.528
1865.47	233.534
1871.58	237.974
1877.7	225.717
1883.81	240.002
1889.93	229.919
1896.04	229.153
1902.16	230.663
1908.27	222.211
1914.39	216.642
1920.5	221.189
1926.62	223.552
1932.73	214.19
1938.85	234.315
1944.96	222.912
1951.08	219.745
1957.19	223.472
1963.31	228.154
1969.42	233.239
1975.54	226.175
1981.65	223.36
1987.77	220.79
1993.88	229.196
2000	225.635