File: Example Data/Raman/CNT - TIM/Raytheon/Al foil/2011/02-10-11/Batch 26 - top_1.txt
300	102.251
306.115	119.505
312.23	112.946
318.345	102.131
324.46	97.7278
330.576	115.189
336.691	99.7333
342.806	78.444
348.921	93.5979
355.036	89.3349
361.151	86.9767
367.266	67.3132
373.381	77.3229
379.496	70.3798
385.612	71.3455
391.727	54.8226
397.842	73.9519
403.957	55.4149
410.072	74.1944
416.187	60.7154
422.302	39.1627
428.417	59.8774
434.532	55.8048
440.647	40.1787
446.763	40.5142
452.878	40.4778
458.993	33.5692
465.108	26.351
471.223	13.3247
477.338	14.8789
483.453	5.55538
489.568	8.31463
495.683	4.2648
501.799	0.379787
507.914	-5.18988
514.029	-6.20416
520.144	-13.5822
526.259	-26.0127
532.374	-26.8437
538.489	-4.14203
544.604	-10.1406
550.719	-14.0355
556.835	-13.3289
562.95	-10.8094
569.065	-6.11843
575.18	-17.4622
581.295	-17.6299
587.41	-13.953
593.525	-12.023
599.64	-10.3107
605.755	-10.1915
611.87	-0.650804
617.986	-15.1737
624.101	-15.3727
630.216	-3.20027
636.331	-10.4425
642.446	-9.33323
648.561	-15.4826
654.676	-2.86067
660.791	-11.0763
666.906	6.8745
673.022	15.5652
679.137	-3.65721
685.252	14.0888
691.367	-7.90036
697.482	2.229
703.597	10.5746
709.712	4.24298
715.827	3.71576
721.942	7.34607
728.058	2.29959
734.173	14.8215
740.288	23.7371
746.403	16.248
752.518	16.5412
758.633	27.869
764.748	13.7579
770.863	24.0822
776.978	37.4826
783.094	27.5201
789.209	29.0856
795.324	39.3665
801.439	38.0079
807.554	50.6756
813.669	60.2697
819.784	60.0601
825.899	64.3616
832.014	52.9793
838.13	70.8375
844.245	61.4436
850.36	69.3853
856.475	51.6359
862.59	47.4715
868.705	47.8037
874.82	35.3202
880.935	32.511
887.05	23.0672
893.165	22.7838
899.281	23.7866
905.396	22.4994
911.511	15.5557
917.626	-1.82941
923.741	12.7023
929.856	7.18368
935.971	12.5242
942.086	-6.73745
948.201	1.23326
954.317	8.46946
960.432	8.40635
966.547	-7.97854
972.662	4.42509
978.777	4.85874
984.892	-11.0529
991.007	11.1509
997.122	-18.5721
1003.24	-2.91454
1009.35	-9.0728
1015.47	-13.0261
1021.58	-7.2015
1027.7	0.386813
1033.81	-2.10105
1039.93	8.71413
1046.04	8.12676
1052.16	0.968394
1058.27	-2.17413
1064.39	-14.0214
1070.5	0.318779
1076.62	6.22951
1082.73	7.04405
1088.85	8.15128
1094.96	5.45218
1101.08	-1.30271
1107.19	16.7992
1113.31	9.05775
1119.42	11.4579
1125.54	2.18695
1131.65	26.1299
1137.77	30.1949
1143.88	2.68993
1150	37.4207
1156.12	24.9096
1162.23	31.9521
1168.35	36.6002
1174.46	44.6941
1180.58	49.486
1186.69	43.3947
1192.81	67.1072
1198.92	73.9022
1205.04	94.6249
1211.15	92.2975
1217.27	112.38
1223.38	134.911
1229.5	157.741
1235.61	180.706
1241.73	214.584
1247.84	246.46
1253.96	291.762
1260.07	342.619
1266.19	364.446
1272.3	439.405
1278.42	501.937
1284.53	564.333
1290.65	695.35
1296.76	786.837
1302.88	912.701
1308.99	1052.23
1315.11	1201.67
1321.22	1259.4
1327.34	1448.52
1333.45	1504.82
1339.57	1492.21
1345.68	1418.23
1351.8	1274.31
1357.91	1155.74
1364.03	1009.75
1370.14	823.566
1376.26	747.435
1382.37	608.056
1388.49	508.262
1394.6	433.794
1400.72	358.305
1406.83	302.212
1412.95	234.695
1419.06	184.96
1425.18	159.247
1431.29	90.1217
1437.41	95.3037
1443.53	66.7645
1449.64	31.8744
1455.76	67.5371
1461.87	49.727
1467.99	26.7471
1474.1	-10.1891
1480.22	6.44599
1486.33	46.3129
1492.45	83.5198
1498.56	113.311
1504.68	128.423
1510.79	181.58
1516.91	249.27
1523.02	313.385
1529.14	385.041
1535.25	457.25
1541.37	601.552
1547.48	705.552
1553.6	882.925
1559.71	1013.18
1565.83	1206.81
1571.94	1337.32
1578.06	1416.75
1584.17	1449.12
1590.29	1450.08
1596.4	1402.66
1602.52	1290.81
1608.63	1129.61
1614.75	939.549
1620.86	749.384
1626.98	559.011
1633.09	427.145
1639.21	311.451
1645.32	208.696
1651.44	136.508
1657.55	77.046
1663.67	44.1701
1669.78	21.2311
1675.9	-5.00814
1682.01	-11.155
1688.13	-7.39115
1694.24	-10.9645
1700.36	1.39637
1706.47	-1.41033
1712.59	-2.92051
1718.71	0.809427
1724.82	7.4031
1730.94	-10.725
1737.05	10.3177
1743.17	6.16229
1749.28	8.81481
1755.4	5.43435
1761.51	0.838215
1767.63	6.36934
1773.74	6.27803
1779.86	5.32888
1785.97	-3.5549
1792.09	-3.5181
1798.2	2.66828
1804.32	-3.29563
1810.43	1.85634
1816.55	-8.55782
1822.66	3.28903
1828.78	-1.41011
1834.89	1.86598
1841.01	-2.65673
1847.12	-9.53707
1853.24	-4.95399
1859.35	-10.1558
1865.47	-5.48074
1871.58	-7.35415
1877.7	-9.06801
1883.81	-2.50114
1889.93	1.6676
1896.04	-10.7744
1902.16	-3.8456
1908.27	-2.79168
1914.39	-12.1806
1920.5	-1.28832
1926.62	-7.66929
1932.73	-10.2813
1938.85	-8.88362
1944.96	-13.3394
1951.08	2.90248
1957.19	-3.84254
1963.31	-1.79602
1969.42	-4.26945
1975.54	-3.90083
1981.65	0.42243
1987.77	7.10495
1993.88	-2.11277
2000	5.50958