File: Example Data/Raman/CNT - TIM/Raytheon/Al foil/2011/02-10-11/Batch 25 - bottom.txt
300	274.402
306.115	295.412
312.23	282.786
318.345	295.822
324.46	288.09
330.576	287.23
336.691	286.5
342.806	277.067
348.921	294.177
355.036	268.647
361.151	270.714
367.266	268.794
373.381	262.069
379.496	256.984
385.612	254.989
391.727	259.954
397.842	252.404
403.957	256.982
410.072	243.432
416.187	252.25
422.302	239.071
428.417	245.854
434.532	241.475
440.647	241.09
446.763	239.834
452.878	229.958
458.993	236.618
465.108	231.854
471.223	224.795
477.338	230.324
483.453	211.7
489.568	212.737
495.683	205.737
501.799	212.995
507.914	208.769
514.029	205.842
520.144	200.878
526.259	219.307
532.374	208.354
538.489	208.864
544.604	197.293
550.719	206.597
556.835	209.361
562.95	223.688
569.065	208.488
575.18	223.497
581.295	221.278
587.41	212.158
593.525	215.735
599.64	219.248
605.755	217.657
611.87	213.138
617.986	208.008
624.101	218.147
630.216	221.026
636.331	226.576
642.446	225.715
648.561	229.939
654.676	235.467
660.791	230.631
666.906	231.559
673.022	227.219
679.137	237.179
685.252	232.806
691.367	228.318
697.482	238.061
703.597	240.981
709.712	248.991
715.827	245.523
721.942	253.212
728.058	241.769
734.173	260.964
740.288	249.483
746.403	256.337
752.518	260.91
758.633	264.198
764.748	263.816
770.863	257.976
776.978	272.862
783.094	288.457
789.209	290.809
795.324	281.249
801.439	308.34
807.554	294.383
813.669	290.896
819.784	282.89
825.899	301.072
832.014	315.803
838.13	305.265
844.245	310.37
850.36	311.609
856.475	287.724
862.59	286.265
868.705	278.669
874.82	283.142
880.935	284.123
887.05	272.656
893.165	270.682
899.281	264.108
905.396	263.39
911.511	247.633
917.626	263.608
923.741	262.171
929.856	256.232
935.971	262.115
942.086	241.286
948.201	252.049
954.317	246.094
960.432	256.301
966.547	254.75
972.662	262.921
978.777	264.307
984.892	262.596
991.007	279.495
997.122	287.379
1003.24	289.918
1009.35	296.547
1015.47	308.848
1021.58	308.141
1027.7	306.51
1033.81	333.178
1039.93	337.539
1046.04	355.275
1052.16	352.103
1058.27	361.838
1064.39	360.121
1070.5	373.239
1076.62	377.741
1082.73	388.196
1088.85	390.41
1094.96	409.182
1101.08	410.839
1107.19	420.384
1113.31	431.342
1119.42	426.013
1125.54	448.8
1131.65	439.917
1137.77	467.259
1143.88	475.793
1150	489.314
1156.12	489.012
1162.23	501.131
1168.35	503.348
1174.46	513.173
1180.58	528.614
1186.69	531.248
1192.81	546.473
1198.92	569.537
1205.04	589.511
1211.15	592.135
1217.27	620.312
1223.38	635.097
1229.5	665.057
1235.61	699.923
1241.73	718.135
1247.84	760.381
1253.96	774.142
1260.07	810.755
1266.19	877.777
1272.3	923.948
1278.42	973.673
1284.53	1028.69
1290.65	1110.27
1296.76	1172.79
1302.88	1282.02
1308.99	1371.03
1315.11	1505.43
1321.22	1616.92
1327.34	1694.36
1333.45	1725.97
1339.57	1734.82
1345.68	1683.09
1351.8	1621.48
1357.91	1553.51
1364.03	1426.65
1370.14	1326.23
1376.26	1244.48
1382.37	1151.08
1388.49	1087.56
1394.6	1034.51
1400.72	1011.81
1406.83	944.191
1412.95	915.307
1419.06	903.123
1425.18	890.432
1431.29	886.111
1437.41	848.155
1443.53	819.931
1449.64	851.501
1455.76	824.035
1461.87	828.918
1467.99	817.952
1474.1	844.89
1480.22	844.463
1486.33	827.823
1492.45	843.274
1498.56	858.745
1504.68	841.948
1510.79	871.298
1516.91	892.901
1523.02	923.312
1529.14	957.971
1535.25	1006.07
1541.37	1073.08
1547.48	1175.21
1553.6	1287.45
1559.71	1349.51
1565.83	1445.77
1571.94	1550.55
1578.06	1611.3
1584.17	1609.33
1590.29	1612.38
1596.4	1541.85
1602.52	1445.4
1608.63	1330.49
1614.75	1158.02
1620.86	1000.59
1626.98	874.152
1633.09	753.232
1639.21	652.364
1645.32	554.569
1651.44	480.67
1657.55	419.08
1663.67	376.016
1669.78	338.963
1675.9	304.596
1682.01	292.604
1688.13	274.156
1694.24	257.369
1700.36	244.927
1706.47	237.981
1712.59	225.101
1718.71	217.114
1724.82	210.221
1730.94	206.425
1737.05	202.002
1743.17	196.603
1749.28	207.82
1755.4	199.691
1761.51	185.887
1767.63	192.504
1773.74	192.217
1779.86	189.728
1785.97	178.953
1792.09	182.429
1798.2	167.165
1804.32	182.685
1810.43	182.525
1816.55	174.754
1822.66	181.112
1828.78	173.373
1834.89	172.873
1841.01	173.688
1847.12	170.253
1853.24	169.752
1859.35	174.047
1865.47	167.283
1871.58	170.472
1877.7	172.213
1883.81	171.832
1889.93	179.349
1896.04	166.566
1902.16	161.028
1908.27	171.405
1914.39	163.052
1920.5	164.622
1926.62	168.172
1932.73	164.297
1938.85	169.18
1944.96	160.063
1951.08	168.199
1957.19	160.749
1963.31	168.533
1969.42	161.532
1975.54	162.779
1981.65	166.714
1987.77	164.475
1993.88	166.563
2000	165.093