File: Example Data/Raman/Kara/12-20-10/Si-Graphene/4bulk/SGbulk_2.txt
300	331.411
312.649	320.73
325.298	332.077
337.946	351.29
350.595	334.001
363.244	336.326
375.893	308.125
388.542	281.576
401.19	291.905
413.839	301.606
426.488	315.601
439.137	315.664
451.786	337.33
464.435	413.673
477.083	523.663
489.732	805.75
502.381	1487.25
515.03	1394.78
527.679	404.805
540.327	231.389
552.976	169.464
565.625	154.884
578.274	155.237
590.923	171.756
603.571	172.374
616.22	160.521
628.869	152.271
641.518	153.992
654.167	150.381
666.815	146.664
679.464	139.562
692.113	133.648
704.762	131.544
717.411	136.588
730.06	139.487
742.708	139.372
755.357	149.24
768.006	151.931
780.655	152.042
793.304	163.532
805.952	161.108
818.601	167.08
831.25	165.571
843.899	163.311
856.548	167.593
869.196	185.011
881.845	198.04
894.494	207.567
907.143	218.86
919.792	240.617
932.44	235.091
945.089	235.14
957.738	202.481
970.387	168.281
983.036	153.627
995.685	132.333
1008.33	125.857
1020.98	123.421
1033.63	116.389
1046.28	124.359
1058.93	112.67
1071.58	109.666
1084.23	113.551
1096.875	107.901
1109.52	101.602
1122.17	104.233
1134.82	112.389
1147.47	107.143
1160.12	112.005
1172.77	104.101
1185.42	103.51
1198.07	113.48
1210.71	102.469
1223.36	111.861
1236.01	113.501
1248.66	114.203
1261.31	118.727
1273.96	110.275
1286.61	116.54
1299.26	118.413
1311.9	129.984
1324.55	136.226
1337.2	146.307
1349.85	144.517
1362.5	141.171
1375.15	141.506
1387.8	135.242
1400.45	134.117
1413.1	133.988
1425.74	139.827
1438.39	137.951
1451.04	140.887
1463.69	134.931
1476.34	141.093
1488.99	151.374
1501.64	136.629
1514.29	147.217
1526.93	141.887
1539.58	147.191
1552.23	152.978
1564.88	151.672
1577.53	160.708
1590.18	165.388
1602.83	164.2
1615.48	152.941
1628.125	143.929
1640.77	148.202
1653.42	145.367
1666.07	146.842
1678.72	153.034
1691.37	155.869
1704.02	147.95
1716.67	146.925
1729.32	158.34
1741.96	151.602
1754.61	138.871
1767.26	151.751
1779.91	165.109
1792.56	166.471
1805.21	164.111
1817.86	162.468
1830.51	160.868
1843.15	170.329
1855.8	168.515
1868.45	173.733
1881.1	172.252
1893.75	174.932
1906.4	180.973
1919.05	190.058
1931.7	181.003
1944.35	195.069
1956.99	182.848
1969.64	177.899
1982.29	192.389
1994.94	195.526
2007.59	196.675
2020.24	193.109
2032.89	208.997
2045.54	202.16
2058.18	202.934
2070.83	208.371
2083.48	217.493
2096.13	212.521
2108.78	217.858
2121.43	226.83
2134.08	222.962
2146.73	227.658
2159.375	224.171
2172.02	238.767
2184.67	230.928
2197.32	237.505
2209.97	240.858
2222.62	251.112
2235.27	251.937
2247.92	261.892
2260.57	268.403
2273.21	256.216
2285.86	276.708
2298.51	276.75
2311.16	275.155
2323.81	283.357
2336.46	311.602
2349.11	295.327
2361.76	286.835
2374.4	294.745
2387.05	305.356
2399.7	308.813
2412.35	321.118
2425	328.206
2437.65	338.88
2450.3	340.524
2462.95	341.993
2475.6	333.187
2488.24	338.489
2500.89	342.203
2513.54	342.771
2526.19	353.379
2538.84	357.957
2551.49	367.716
2564.14	371.233
2576.79	377.147
2589.43	382.549
2602.08	377.823
2614.73	399.258
2627.38	392.908
2640.03	408.062
2652.68	408.027
2665.33	422.122
2677.98	430.351
2690.625	436.683
2703.27	453.967
2715.92	442.411
2728.57	446.288
2741.22	463.262
2753.87	463.315
2766.52	529.628
2779.17	473.993
2791.82	484.997
2804.46	497.994
2817.11	498.986
2829.76	517.214
2842.41	520.066
2855.06	529.18
2867.71	524.509
2880.36	535.082
2893.01	558.871
2905.65	566.762
2918.3	551.996
2930.95	577.818
2943.6	587.555
2956.25	599.737
2968.9	610.449
2981.55	607.206
2994.2	600.054
3006.85	614.98
3019.49	644.992
3032.14	646.394
3044.79	655.123
3057.44	680.271
3070.09	687.408
3082.74	694.549
3095.39	700.451
3108.04	716.055
3120.68	728.171
3133.33	736.756
3145.98	750.16
3158.63	754.17
3171.28	751.39
3183.93	789.055
3196.58	792.693
3209.23	822.531
3221.875	823.163
3234.52	849.663
3247.17	848.962
3259.82	851.659
3272.47	879.639
3285.12	897.916
3297.77	903.752
3310.42	928.448
3323.07	928.472
3335.71	943.191
3348.36	932.642
3361.01	949.562
3373.66	989.009
3386.31	999.903
3398.96	1002.6
3411.61	1024.32
3424.26	1044.93
3436.9	1049.56
3449.55	1061.2
3462.2	1091.35
3474.85	1104.6
3487.5	1084.79
3500.15	1126.26
3512.8	1147.27
3525.45	1165.51
3538.1	1188.62
3550.74	1182.24
3563.39	1202.63
3576.04	1236.34
3588.69	1280.4
3601.34	1276.05
3613.99	1273.04
3626.64	1327.29
3639.29	1332.2
3651.93	1337.65
3664.58	1364.36
3677.23	1372.43
3689.88	1378.36
3700	1407.2