File: Example Data/Raman/Kara/12-20-10/Si-Graphene/4bulk/SGbulk_1.txt
400	219.645
412.576	249.875
425.152	310.382
437.729	335.885
450.305	361.737
462.881	416.69
475.457	522.507
488.034	734.636
500.61	1265.55
513.186	1396.14
525.762	440.049
538.338	243.666
550.915	185.446
563.491	169.346
576.067	172.308
588.643	174.936
601.219	180.493
613.796	167.906
626.372	167.886
638.948	167.194
651.524	165.638
664.101	158.05
676.677	158.384
689.253	152.418
701.829	148.842
714.406	139.91
726.982	146.108
739.558	156.605
752.134	167.945
764.71	165.147
777.287	171.821
789.863	173.292
802.439	179.328
815.015	179.818
827.591	182.518
840.168	184.245
852.744	185.115
865.32	199.046
877.896	192.655
890.473	217.697
903.049	235.41
915.625	261.72
928.201	249.669
940.777	250.454
953.354	229.015
965.93	200.639
978.506	172.561
991.082	156.354
1003.66	143.81
1016.23	141.959
1028.81	136.401
1041.39	145.945
1053.96	139.353
1066.54	148.579
1079.12	136.658
1091.69	132.766
1104.27	135.337
1116.84	127.639
1129.42	127.638
1142	133.952
1154.57	127.118
1167.15	133.851
1179.73	126.141
1192.3	133.052
1204.88	128.606
1217.45	136.935
1230.03	134.352
1242.61	153.324
1255.18	144.435
1267.76	147.965
1280.34	138.066
1292.91	163.92
1305.49	151.362
1318.06	154.822
1330.64	163.165
1343.22	183.249
1355.79	184.165
1368.37	175.877
1380.95	176.375
1393.52	172.617
1406.1	169.47
1418.67	157.5
1431.25	160.506
1443.83	168.977
1456.4	170.63
1468.98	179.147
1481.55	174.062
1494.13	178.506
1506.71	179.323
1519.28	176.511
1531.86	180.153
1544.44	183.603
1557.01	196.991
1569.59	193.366
1582.16	199.477
1594.74	193.78
1607.32	201.07
1619.89	200.544
1632.47	202.893
1645.05	188
1657.62	186.969
1670.2	182.428
1682.77	194.423
1695.35	197.344
1707.93	184.897
1720.5	193.482
1733.08	202.39
1745.66	202.685
1758.23	196.003
1770.81	210.885
1783.38	214.64
1795.96	200.26
1808.54	210.651
1821.11	218.336
1833.69	219.339
1846.27	219.806
1858.84	224.654
1871.42	231.189
1883.99	233.036
1896.57	225.807
1909.15	221.547
1921.72	234.736
1934.3	238.673
1946.875	239.384
1959.45	237.593
1972.03	245.214
1984.6	251.255
1997.18	228.258
2009.76	251.557
2022.33	272.55
2034.91	259.637
2047.48	273.514
2060.06	271.409
2072.64	276.928
2085.21	270.589
2097.79	273.824
2110.37	278.247
2122.94	300.715
2135.52	295.045
2148.09	297.485
2160.67	306.247
2173.25	305.581
2185.82	312.031
2198.4	328.201
2210.98	305.725
2223.55	312.259
2236.13	319.111
2248.7	324.357
2261.28	334.401
2273.86	343.425
2286.43	351.897
2299.01	357.483
2311.59	372.882
2324.16	366.292
2336.74	380.337
2349.31	373.352
2361.89	372.759
2374.47	378.125
2387.04	389.631
2399.62	396.25
2412.2	399.521
2424.77	419.913
2437.35	430.5
2449.92	431.655
2462.5	440.54
2475.08	443.921
2487.65	641.524
2500.23	449.838
2512.8	451.068
2525.38	467.936
2537.96	468.406
2550.53	463.814
2563.11	486.369
2575.69	488.786
2588.26	495.401
2600.84	496.744
2613.41	500.977
2625.99	503.583
2638.57	515.76
2651.14	525.568
2663.72	537.672
2676.3	547.775
2688.87	552.851
2701.45	564.758
2714.02	567.307
2726.6	577.956
2739.18	593.11
2751.75	586.188
2764.33	591.556
2776.91	605.753
2789.48	606.721
2802.06	620.692
2814.63	618.026
2827.21	638.968
2839.79	638.845
2852.36	657.711
2864.94	659.512
2877.52	669.686
2890.09	676.439
2902.67	696.142
2915.24	715.896
2927.82	721.056
2940.4	721.291
2952.97	744.064
2965.55	741.055
2978.125	751.961
2990.7	764.377
3003.28	758.901
3015.85	768.081
3028.43	784.947
3041.01	793.817
3053.58	826.798
3066.16	838.23
3078.73	852.736
3091.31	862.692
3103.89	875.148
3116.46	874.254
3129.04	889.211
3141.62	904.343
3154.19	908.799
3166.77	916.297
3179.34	946.728
3191.92	951.922
3204.5	977.063
3217.07	985.858
3229.65	1011.55
3242.23	998.545
3254.8	1029.8
3267.38	1053.41
3279.95	1067.47
3292.53	1080.26
3305.11	1098.13
3317.68	1101.44
3330.26	1123.42
3342.84	1119.24
3355.41	1137.74
3367.99	1146.19
3380.56	1188.93
3393.14	1190.04
3405.72	1204.3
3418.29	1243.34
3430.87	1235.15
3443.45	1269.19
3456.02	1284.47
3468.6	1298.75
3481.17	1329.76
3493.75	1344.88
3506.33	1344.06
3518.9	1348.81
3531.48	1379.67
3544.05	1395.99
3556.63	1408.9
3569.21	1441.99
3581.78	1471.54
3594.36	1481.24
3606.94	1500.71
3619.51	1528.67
3632.09	1526.54
3644.66	1566.2
3657.24	1589.18
3669.82	1579.3
3682.39	1637.09
3694.97	1651.58
3700	1646.25