File: Example Data/Raman/CNT - TIM/Raytheon/Silicon - Ola/05-13-10/Si - Low Pressure - 10 min.txt
300	219.47
306.115	221.967
312.23	213.449
318.345	218.285
324.46	203.984
330.576	204.843
336.691	203.596
342.806	216.899
348.921	192.262
355.036	189.654
361.151	179.885
367.266	179.715
373.381	185.573
379.496	170.906
385.612	180.078
391.727	170.723
397.842	181.615
403.957	175.601
410.072	166.17
416.187	165.892
422.302	156.957
428.417	169.087
434.532	155.783
440.647	168.518
446.763	158.463
452.878	147.443
458.993	149.277
465.108	152.2
471.223	139.568
477.338	157.111
483.453	155.275
489.568	158.196
495.683	129.547
501.799	149.362
507.914	136.788
514.029	134.979
520.144	145.589
526.259	154.471
532.374	146.098
538.489	131.597
544.604	138.568
550.719	150.639
556.835	131.702
562.95	146.333
569.065	152.783
575.18	136
581.295	140.788
587.41	144.399
593.525	147.357
599.64	148.949
605.755	156.936
611.87	142.741
617.986	155.586
624.101	145.928
630.216	145.98
636.331	152.183
642.446	140.343
648.561	158.257
654.676	148.257
660.791	164.521
666.906	159.6
673.022	157.231
679.137	167.377
685.252	161.176
691.367	161.024
697.482	171.222
703.597	173.48
709.712	171.582
715.827	171.914
721.942	175.551
728.058	186.144
734.173	190.814
740.288	189.788
746.403	198.418
752.518	205.079
758.633	201.869
764.748	202.076
770.863	207.484
776.978	205.298
783.094	212.41
789.209	206.507
795.324	206.788
801.439	224.565
807.554	200.778
813.669	231.252
819.784	236.023
825.899	233.263
832.014	229.825
838.13	256.535
844.245	226.654
850.36	239.684
856.475	229.778
862.59	234.452
868.705	228.641
874.82	210.482
880.935	202.375
887.05	197.354
893.165	188.681
899.281	176.465
905.396	169.975
911.511	174.324
917.626	164.975
923.741	154.01
929.856	166.342
935.971	146.727
942.086	153.434
948.201	148.329
954.317	159.082
960.432	143.795
966.547	150.667
972.662	150.252
978.777	147.077
984.892	148
991.007	158.959
997.122	157.976
1003.24	169.044
1009.35	160.271
1015.47	156.14
1021.58	164.256
1027.7	171.355
1033.81	179.033
1039.93	174.695
1046.04	169.261
1052.16	170.745
1058.27	170.556
1064.39	152.644
1070.5	164.114
1076.62	163.493
1082.73	162.227
1088.85	158.501
1094.96	157.64
1101.08	160.492
1107.19	147.81
1113.31	149.599
1119.42	157.282
1125.54	154.486
1131.65	153.371
1137.77	144.543
1143.88	145.743
1150	147.543
1156.12	155.032
1162.23	151.093
1168.35	150.673
1174.46	158.124
1180.58	158.74
1186.69	171.333
1192.81	170.566
1198.92	159.51
1205.04	171.208
1211.15	180.275
1217.27	173.652
1223.38	176.848
1229.5	197.85
1235.61	211.433
1241.73	214.682
1247.84	228.35
1253.96	232.664
1260.07	236.861
1266.19	265.301
1272.3	277.749
1278.42	282.146
1284.53	309.825
1290.65	336.81
1296.76	374.903
1302.88	426.922
1308.99	475.54
1315.11	544.576
1321.22	591.891
1327.34	637.136
1333.45	688.081
1339.57	664.304
1345.68	617.725
1351.8	564.592
1357.91	505.804
1364.03	457.297
1370.14	416.573
1376.26	374.577
1382.37	333.194
1388.49	320.879
1394.6	301.874
1400.72	267.72
1406.83	253.303
1412.95	251.565
1419.06	238.279
1425.18	244.525
1431.29	232.534
1437.41	219.858
1443.53	217.864
1449.64	216.698
1455.76	209.924
1461.87	233.851
1467.99	228.335
1474.1	225.089
1480.22	218.138
1486.33	232.21
1492.45	227.766
1498.56	226.829
1504.68	236.623
1510.79	239.142
1516.91	242.851
1523.02	239.725
1529.14	248.625
1535.25	283.348
1541.37	317.43
1547.48	359.623
1553.6	398.005
1559.71	450.139
1565.83	511.352
1571.94	562.704
1578.06	560.869
1584.17	545.26
1590.29	514.781
1596.4	483.353
1602.52	461.102
1608.63	434.645
1614.75	365.916
1620.86	304.214
1626.98	245.74
1633.09	213.155
1639.21	173.536
1645.32	164.095
1651.44	147.175
1657.55	132.758
1663.67	117.728
1669.78	114.045
1675.9	105.278
1682.01	105.564
1688.13	100.679
1694.24	97.6821
1700.36	97.2763
1706.47	99.0877
1712.59	90.9885
1718.71	90.1497
1724.82	92.406
1730.94	87.3662
1737.05	82.0914
1743.17	88.8913
1749.28	87.0568
1755.4	85.1066
1761.51	86.1528
1767.63	82.3036
1773.74	76.588
1779.86	79.8373
1785.97	70.728
1792.09	82.8698
1798.2	87.002
1804.32	74.4848
1810.43	75.3732
1816.55	77.5815
1822.66	85.4032
1828.78	80.2418
1834.89	80.3885
1841.01	75.1491
1847.12	74.1111
1853.24	73.6495
1859.35	76.1793
1865.47	77
1871.58	79.4586
1877.7	77.7946
1883.81	76.3579
1889.93	77.3362
1896.04	76.3201
1902.16	71.4053
1908.27	68.5223
1914.39	68.2135
1920.5	67.9064
1926.62	76.9279
1932.73	83.6442
1938.85	76.332
1944.96	85.7383
1951.08	74.5624
1957.19	85.9719
1963.31	72.7687
1969.42	76.2304
1975.54	80.113
1981.65	74.9388
1987.77	79.6598
1993.88	74.2344
2000	72.458