File: Example Data/Raman/CNT - TIM/Raytheon/Silicon - Ola/05-13-10/Si - High Pressure.txt
300	228.664
306.115	228.511
312.23	222.593
318.345	226.349
324.46	204.789
330.576	213.308
336.691	214.521
342.806	229.374
348.921	210.539
355.036	211.142
361.151	202.303
367.266	200.586
373.381	198.532
379.496	183.59
385.612	194.365
391.727	184.333
397.842	171.068
403.957	175.231
410.072	190.007
416.187	163.274
422.302	176.953
428.417	171.801
434.532	173.317
440.647	178.284
446.763	173.932
452.878	159.675
458.993	152.148
465.108	164.848
471.223	164.089
477.338	166.245
483.453	159.042
489.568	163.637
495.683	161.547
501.799	155.594
507.914	157.52
514.029	158.773
520.144	161.02
526.259	150.23
532.374	155.817
538.489	157.935
544.604	149.653
550.719	151.604
556.835	156.663
562.95	162.126
569.065	153.308
575.18	159.487
581.295	152.402
587.41	161.026
593.525	158.965
599.64	155.746
605.755	148.862
611.87	163.034
617.986	162.333
624.101	158.876
630.216	168.02
636.331	163.978
642.446	178.826
648.561	168.896
654.676	166.195
660.791	168.279
666.906	178.323
673.022	175.052
679.137	185.275
685.252	179.292
691.367	183.952
697.482	183.509
703.597	186.333
709.712	192.301
715.827	190.839
721.942	199.024
728.058	199.735
734.173	207.883
740.288	210.612
746.403	218.67
752.518	212.111
758.633	222.739
764.748	205.351
770.863	223.954
776.978	224.37
783.094	218.55
789.209	227.189
795.324	231.257
801.439	236.141
807.554	232.697
813.669	231.953
819.784	251.748
825.899	249.59
832.014	247.773
838.13	259.471
844.245	261.385
850.36	264.166
856.475	250.929
862.59	248.266
868.705	228.504
874.82	231.051
880.935	221.738
887.05	207.374
893.165	200.802
899.281	203.434
905.396	189.975
911.511	183.664
917.626	179.423
923.741	185.955
929.856	183.861
935.971	165.394
942.086	164.602
948.201	168.408
954.317	168.798
960.432	164.363
966.547	179.933
972.662	167.215
978.777	166.275
984.892	162.199
991.007	159.891
997.122	174.633
1003.24	171.696
1009.35	166.849
1015.47	176.136
1021.58	178.217
1027.7	188.795
1033.81	181.771
1039.93	196.986
1046.04	190.266
1052.16	203.216
1058.27	200.414
1064.39	173.128
1070.5	177.963
1076.62	175.456
1082.73	168.873
1088.85	172.25
1094.96	168.522
1101.08	166.733
1107.19	172.005
1113.31	166.82
1119.42	161.232
1125.54	162.436
1131.65	156.033
1137.77	148.771
1143.88	165.682
1150	166.59
1156.12	163.441
1162.23	156.263
1168.35	159.561
1174.46	171.125
1180.58	170.675
1186.69	172.22
1192.81	174.081
1198.92	181.618
1205.04	170.96
1211.15	184.093
1217.27	182.956
1223.38	202.276
1229.5	198.964
1235.61	205.376
1241.73	213.349
1247.84	225.744
1253.96	230.417
1260.07	252.409
1266.19	243.863
1272.3	268.402
1278.42	294.892
1284.53	311.07
1290.65	343.074
1296.76	373.364
1302.88	413.691
1308.99	467.996
1315.11	513.25
1321.22	599.211
1327.34	650.149
1333.45	653.834
1339.57	679.174
1345.68	642.443
1351.8	579.543
1357.91	516.216
1364.03	468.328
1370.14	433.913
1376.26	369.417
1382.37	356.859
1388.49	325.407
1394.6	299.821
1400.72	292.483
1406.83	271.183
1412.95	249.24
1419.06	253.849
1425.18	248.938
1431.29	252.773
1437.41	247.142
1443.53	234.474
1449.64	229.287
1455.76	237.086
1461.87	234.486
1467.99	239.659
1474.1	228.717
1480.22	237.032
1486.33	234.972
1492.45	232.766
1498.56	241.95
1504.68	245.657
1510.79	236.468
1516.91	254.844
1523.02	259.59
1529.14	275.236
1535.25	304.639
1541.37	333.501
1547.48	398.91
1553.6	443.214
1559.71	486.821
1565.83	538.349
1571.94	569.074
1578.06	548.651
1584.17	524.796
1590.29	502.132
1596.4	471.408
1602.52	441.352
1608.63	412.786
1614.75	344.372
1620.86	306.241
1626.98	257.036
1633.09	223.059
1639.21	191.788
1645.32	169.514
1651.44	151.479
1657.55	142.864
1663.67	126.216
1669.78	116.78
1675.9	113.638
1682.01	110.265
1688.13	106.517
1694.24	106.578
1700.36	96.8075
1706.47	102.741
1712.59	99.2372
1718.71	97.6987
1724.82	87.8524
1730.94	95.671
1737.05	94.7197
1743.17	88.3777
1749.28	94.5083
1755.4	95.0005
1761.51	89.5436
1767.63	84.6703
1773.74	90.3475
1779.86	84.7991
1785.97	96.986
1792.09	88.2158
1798.2	88.2113
1804.32	78.3434
1810.43	87.6172
1816.55	87.9148
1822.66	89.9243
1828.78	84.5935
1834.89	80.9724
1841.01	89.4303
1847.12	91.8485
1853.24	93.9725
1859.35	85.4765
1865.47	88.2454
1871.58	82.4609
1877.7	84.0268
1883.81	91.192
1889.93	81.7173
1896.04	87.9882
1902.16	83.2432
1908.27	83.7076
1914.39	81.7747
1920.5	82.3125
1926.62	81.0928
1932.73	83.3269
1938.85	84.4566
1944.96	83.7155
1951.08	79.527
1957.19	88.0218
1963.31	79.5087
1969.42	82.0494
1975.54	84.2203
1981.65	82.367
1987.77	81.1476
1993.88	82.5403
2000	87.1401