File: Example Data/Raman/Kara/12-20-10/Si wafer/Siwafer_1.txt
400	112.539
412.576	110.321
425.152	104.491
437.729	105.02
450.305	89.5312
462.881	69.445
475.457	77.21
488.034	97.6452
500.61	154.309
513.186	1158.1
525.762	3610.47
538.338	469.648
550.915	197.971
563.491	149.327
576.067	116.746
588.643	101.266
601.219	100.659
613.796	111.576
626.372	114.832
638.948	102.155
651.524	108.06
664.101	106.833
676.677	109.507
689.253	93.8287
701.829	92.7906
714.406	94.1442
726.982	84.6064
739.558	81.4624
752.134	95.047
764.71	105.332
777.287	106.928
789.863	105.865
802.439	106.32
815.015	118.29
827.591	127.261
840.168	118.905
852.744	117.969
865.32	111.049
877.896	106.062
890.473	110.897
903.049	97.3791
915.625	93.2
928.201	112.144
940.777	239.088
953.354	277.964
965.93	281.564
978.506	282.938
991.082	236.2
1003.66	134.756
1016.23	96.6321
1028.81	80.0734
1041.39	64.6043
1053.96	47.4695
1066.54	42.2492
1079.12	42.6749
1091.69	33.25
1104.27	26.9017
1116.84	32.0803
1129.42	23.8481
1142	25.6483
1154.57	19.8444
1167.15	20.3701
1179.73	18.9892
1192.3	18.1305
1204.88	12.5812
1217.45	17.7744
1230.03	15.6
1242.61	18.5958
1255.18	16.8774
1267.76	18.2335
1280.34	17.8744
1292.91	13.3456
1305.49	16.4106
1318.06	19.4772
1330.64	18.2488
1343.22	14.2674
1355.79	13.4888
1368.37	18.9157
1380.95	15.2437
1393.52	18.2284
1406.1	17.7855
1418.67	17.1649
1431.25	18.4942
1443.83	19.4449
1456.4	18.7198
1468.98	25.2682
1481.55	16.8362
1494.13	16.1963
1506.71	17.2029
1519.28	17.7714
1531.86	14.0439
1544.44	12.7772
1557.01	20.2803
1569.59	15.4697
1582.16	15.4415
1594.74	13.1832
1607.32	13.2782
1619.89	14.4585
1632.47	15.1841
1645.05	11.0849
1657.62	12.7659
1670.2	17.1493
1682.77	13.7692
1695.35	13.2383
1707.93	18.2595
1720.5	15.8242
1733.08	15.0871
1745.66	13.4156
1758.23	10.8078
1770.81	16.8518
1783.38	7.64574
1795.96	13.241
1808.54	14.3614
1821.11	12.5464
1833.69	8.29929
1846.27	10.1359
1858.84	14.9002
1871.42	13.8
1883.99	19.2711
1896.57	17.935
1909.15	14.5511
1921.72	14.1217
1934.3	15.3481
1946.875	13.877
1959.45	17.3124
1972.03	17.5466
1984.6	17.9423
1997.18	14.3709
2009.76	13.4413
2022.33	14.8479
2034.91	11.9052
2047.48	14.7634
2060.06	17.1735
2072.64	16.3252
2085.21	17.8405
2097.79	15.9508
2110.37	19.8533
2122.94	16.0441
2135.52	17.4543
2148.09	15.469
2160.67	16.1102
2173.25	14.0566
2185.82	18.8786
2198.4	22.7068
2210.98	21.2343
2223.55	17.7219
2236.13	20.8873
2248.7	21.4509
2261.28	25.1011
2273.86	22.7001
2286.43	22.4011
2299.01	20.9412
2311.59	22.2795
2324.16	23.6819
2336.74	96.9096
2349.31	20.0062
2361.89	28.5633
2374.47	23.1339
2387.04	25.392
2399.62	28.7323
2412.2	30.2841
2424.77	29.863
2437.35	30.1396
2449.92	30.2561
2462.5	30.5723
2475.08	31.292
2487.65	29.3187
2500.23	30.7325
2512.8	32.5321
2525.38	37.512
2537.96	33.7659
2550.53	35.1891
2563.11	31.9985
2575.69	32.2859
2588.26	33.452
2600.84	34.6804
2613.41	36.0978
2625.99	35.7507
2638.57	34.9155
2651.14	37.185
2663.72	36.0859
2676.3	37.4325
2688.87	43.0632
2701.45	39.0456
2714.02	40.6006
2726.6	40.4167
2739.18	41.5781
2751.75	41.2761
2764.33	38.6116
2776.91	43.7062
2789.48	43.5539
2802.06	39.0587
2814.63	40.221
2827.21	49.1231
2839.79	45.4097
2852.36	44.6843
2864.94	47.5152
2877.52	48.7813
2890.09	42.2908
2902.67	46.8226
2915.24	45.502
2927.82	49.6107
2940.4	49.566
2952.97	49.044
2965.55	54.0699
2978.125	49.8298
2990.7	48.5128
3003.28	51.1602
3015.85	47.7595
3028.43	51.9551
3041.01	50.8782
3053.58	50.8817
3066.16	53.5973
3078.73	51.2057
3091.31	54.335
3103.89	52.5873
3116.46	55.535
3129.04	54.4409
3141.62	60.4233
3154.19	55.8751
3166.77	53.5021
3179.34	56.3134
3191.92	61.7614
3204.5	53.7482
3217.07	65.471
3229.65	56.3579
3242.23	60.1669
3254.8	58.1695
3267.38	61.6799
3279.95	54.8063
3292.53	54.9592
3305.11	55.4885
3317.68	62.2147
3330.26	53.8295
3342.84	56.135
3355.41	59.3024
3367.99	64.335
3380.56	59.5116
3393.14	63.3197
3405.72	63.8456
3418.29	65.5917
3430.87	66.9308
3443.45	62.2986
3456.02	63.2113
3468.6	70.4775
3481.17	70.3812
3493.75	66.1231
3506.33	59.8108
3518.9	67.5788
3531.48	66.1788
3544.05	64.54
3556.63	66.8157
3569.21	65.1049
3581.78	66.5616
3594.36	62.3129
3606.94	66.8109
3619.51	69.8989
3632.09	68.1008
3644.66	68.2424
3657.24	70.6788
3669.82	69.8601
3682.39	69.4142
3694.97	73.1778
3700	64.5919