File: Example Data/Raman/Kara/12-20-10/Si wafer/Siwafer_2.txt
400	118.538
412.576	111.495
425.152	112.855
437.729	104.21
450.305	91.4911
462.881	69.8774
475.457	78.3989
488.034	99.1946
500.61	155.451
513.186	1141.86
525.762	3582.8
538.338	459.781
550.915	192.683
563.491	150.318
576.067	121.495
588.643	100.445
601.219	97.8654
613.796	110.318
626.372	114.266
638.948	99.0168
651.524	103.898
664.101	102.417
676.677	111.343
689.253	97.3591
701.829	88.3396
714.406	85.3783
726.982	83.7227
739.558	92.8025
752.134	94.1716
764.71	101.184
777.287	98.1497
789.863	108.313
802.439	117.253
815.015	121.103
827.591	122.604
840.168	118.65
852.744	117.347
865.32	112.602
877.896	111.963
890.473	102.47
903.049	91.4143
915.625	86.6333
928.201	120.439
940.777	233.609
953.354	288.125
965.93	281.91
978.506	296.828
991.082	249.825
1003.66	138.739
1016.23	105.499
1028.81	87.383
1041.39	54.6163
1053.96	55.0638
1066.54	40.232
1079.12	45.7113
1091.69	34.1145
1104.27	33.2983
1116.84	28.6796
1129.42	27.3749
1142	24.5976
1154.57	20.9408
1167.15	22.9031
1179.73	17.5931
1192.3	19.2
1204.88	20.1657
1217.45	14.5243
1230.03	19.8307
1242.61	16.0064
1255.18	16.7859
1267.76	17.2067
1280.34	17.2619
1292.91	19.2739
1305.49	19.5944
1318.06	16.3194
1330.64	19.3421
1343.22	20.3515
1355.79	14.4188
1368.37	15.3711
1380.95	21.669
1393.52	17.5482
1406.1	18.7773
1418.67	17.6266
1431.25	18.6471
1443.83	17.0449
1456.4	26.7699
1468.98	22.6287
1481.55	16.1346
1494.13	17.2836
1506.71	15.6372
1519.28	16.4932
1531.86	17.6698
1544.44	13.5772
1557.01	25.4224
1569.59	17.9175
1582.16	10.3401
1594.74	10.1048
1607.32	15.6258
1619.89	15.1341
1632.47	11.6915
1645.05	12.8283
1657.62	13.1495
1670.2	10.2769
1682.77	13.8824
1695.35	14.5059
1707.93	12.7134
1720.5	15.8264
1733.08	17.5544
1745.66	10.2
1758.23	17.9694
1770.81	16.4634
1783.38	11.809
1795.96	12.7778
1808.54	11.3807
1821.11	14.5757
1833.69	13.7413
1846.27	9.39806
1858.84	14.8465
1871.42	17.0929
1883.99	16.4824
1896.57	11.8121
1909.15	15.9007
1921.72	15.9241
1934.3	14.6811
1946.875	10.8167
1959.45	13.4
1972.03	17.8327
1984.6	12.6572
1997.18	12.1196
2009.76	12.1258
2022.33	11.5278
2034.91	9.80163
2047.48	15.5298
2060.06	18.6059
2072.64	18.4978
2085.21	15.197
2097.79	14.2114
2110.37	19.2875
2122.94	13.3472
2135.52	15.6034
2148.09	16.1846
2160.67	18.3535
2173.25	14.1445
2185.82	16.0636
2198.4	16.7419
2210.98	18.2352
2223.55	19.0341
2236.13	16.1104
2248.7	17.3988
2261.28	15.1367
2273.86	20.753
2286.43	24.6506
2299.01	20.0243
2311.59	22.42
2324.16	19.332
2336.74	94.1145
2349.31	20.2456
2361.89	21.3194
2374.47	22.2401
2387.04	18.6965
2399.62	26.1319
2412.2	26.967
2424.77	25.3616
2437.35	30.4975
2449.92	24.378
2462.5	25.4687
2475.08	26.4174
2487.65	28.8713
2500.23	26.2019
2512.8	26.1345
2525.38	33.1395
2537.96	27.7352
2550.53	28.7216
2563.11	28.5895
2575.69	29.6829
2588.26	32.1982
2600.84	25.8235
2613.41	31.2601
2625.99	34.0883
2638.57	27.6344
2651.14	31.8933
2663.72	26.5432
2676.3	30.7119
2688.87	31.51
2701.45	33.8758
2714.02	30.8445
2726.6	32.5003
2739.18	34.4904
2751.75	32.3819
2764.33	32.8331
2776.91	29.1292
2789.48	33.3731
2802.06	38.5328
2814.63	36.7781
2827.21	32.1517
2839.79	32.8015
2852.36	36.5091
2864.94	36.2434
2877.52	37.785
2890.09	40.6697
2902.67	35.3223
2915.24	37.3334
2927.82	40.7301
2940.4	37.4515
2952.97	36.8004
2965.55	37.9237
2978.125	44.8145
2990.7	39.2771
3003.28	37.9364
3015.85	34.9972
3028.43	40.6694
3041.01	37.6934
3053.58	42.4077
3066.16	38.3644
3078.73	39.841
3091.31	42.9836
3103.89	39.6718
3116.46	41.7074
3129.04	39.5937
3141.62	42.2549
3154.19	47.9757
3166.77	48.1302
3179.34	50.7019
3191.92	46.6271
3204.5	45.6141
3217.07	47.9262
3229.65	45.9345
3242.23	47.7875
3254.8	48.7604
3267.38	47.9205
3279.95	45.7268
3292.53	50.8954
3305.11	47.0978
3317.68	46.1649
3330.26	54.5395
3342.84	54.6302
3355.41	47.5143
3367.99	52.3009
3380.56	56.4447
3393.14	50.7365
3405.72	48.3093
3418.29	53.8446
3430.87	55.0408
3443.45	52.172
3456.02	47.94
3468.6	45.9508
3481.17	48.8519
3493.75	50.7529
3506.33	59.4469
3518.9	53.3379
3531.48	53.2404
3544.05	55.0278
3556.63	52.7124
3569.21	55.7264
3581.78	52.0665
3594.36	55.8979
3606.94	57.0855
3619.51	55.9912
3632.09	57.1609
3644.66	60.7506
3657.24	58.5196
3669.82	59.0034
3682.39	55.605
3694.97	56.8141
3700	59.9623