File: Example Data/Raman/Kara/12-20-10/Si wafer/Siwafer_3.txt
400	115.03
412.576	104.717
425.152	113.041
437.729	105.029
450.305	84.6
462.881	69.6582
475.457	76.0433
488.034	97.2751
500.61	149.097
513.186	1130.13
525.762	3589.26
538.338	470.664
550.915	200.335
563.491	136.852
576.067	110.947
588.643	100.8
601.219	92.9513
613.796	107.823
626.372	111.341
638.948	94.871
651.524	101.6
664.101	107.434
676.677	100.949
689.253	96.6447
701.829	88.8698
714.406	86.0589
726.982	90.2598
739.558	87.4598
752.134	96.6909
764.71	96.1038
777.287	101.542
789.863	98.3791
802.439	106.602
815.015	118.728
827.591	121.882
840.168	120.073
852.744	119.053
865.32	113.899
877.896	109.682
890.473	98.4474
903.049	94.4212
915.625	98.5721
928.201	116.081
940.777	242.752
953.354	282.168
965.93	276.328
978.506	288.158
991.082	234.428
1003.66	123.891
1016.23	99.0552
1028.81	77.6734
1041.39	55.8
1053.96	45.0739
1066.54	39.4869
1079.12	29.5404
1091.69	33.3161
1104.27	28.7727
1116.84	27.3607
1129.42	26.2146
1142	21.4926
1154.57	20.9262
1167.15	19.2106
1179.73	15.9369
1192.3	14.1218
1204.88	15.6563
1217.45	11.5357
1230.03	13.0518
1242.61	15.9862
1255.18	14.3838
1267.76	18.0659
1280.34	15.5489
1292.91	12.6815
1305.49	16.5081
1318.06	14.9942
1330.64	15.449
1343.22	13.0755
1355.79	18.2929
1368.37	22.6795
1380.95	13.0486
1393.52	14.4579
1406.1	16.833
1418.67	12.9558
1431.25	15.1529
1443.83	18.6421
1456.4	17.5303
1468.98	22.5209
1481.55	14.0654
1494.13	13.52
1506.71	15.358
1519.28	12.6
1531.86	12.0658
1544.44	14.521
1557.01	22.2362
1569.59	11.0624
1582.16	10.5705
1594.74	9.18743
1607.32	11.2
1619.89	16.2682
1632.47	11.7403
1645.05	13.7149
1657.62	8.69901
1670.2	9.10198
1682.77	14.7276
1695.35	15.2383
1707.93	14.6485
1720.5	17.3277
1733.08	17.4792
1745.66	16.3418
1758.23	13.0664
1770.81	14.1858
1783.38	10.5632
1795.96	15.8222
1808.54	15.0341
1821.11	14.7255
1833.69	11.3733
1846.27	11.7015
1858.84	15.3376
1871.42	12.8464
1883.99	10.8629
1896.57	11.0223
1909.15	13.8403
1921.72	13.4807
1934.3	10.6682
1946.875	14.1222
1959.45	11.0064
1972.03	14.7431
1984.6	17.1985
1997.18	13.2299
2009.76	13.3893
2022.33	12.7414
2034.91	14.2964
2047.48	14.913
2060.06	16.7322
2072.64	16.9425
2085.21	13.6
2097.79	13.8815
2110.37	14.3905
2122.94	14.9984
2135.52	13.2573
2148.09	14.6025
2160.67	15.1197
2173.25	13.7401
2185.82	14.3988
2198.4	16.7124
2210.98	16.7141
2223.55	18.3788
2236.13	20.2459
2248.7	14.2096
2261.28	18.4108
2273.86	18.6514
2286.43	20.3298
2299.01	18.0365
2311.59	21.4744
2324.16	18.5174
2336.74	98.1697
2349.31	17.3362
2361.89	22.5402
2374.47	18.4314
2387.04	22.5748
2399.62	21.2557
2412.2	22.0879
2424.77	25.1445
2437.35	19.2495
2449.92	25.7849
2462.5	23.4009
2475.08	21.3049
2487.65	24.2382
2500.23	24.2669
2512.8	23.9014
2525.38	29.8314
2537.96	27.2447
2550.53	28.6866
2563.11	27.4005
2575.69	27.012
2588.26	28.1472
2600.84	25.7466
2613.41	30.0534
2625.99	30.848
2638.57	27.9087
2651.14	30.1452
2663.72	29.6302
2676.3	28.6228
2688.87	29.6938
2701.45	28.8524
2714.02	33.0196
2726.6	32.4714
2739.18	33.2519
2751.75	32.5467
2764.33	32.0235
2776.91	32.4837
2789.48	31.5654
2802.06	31.6869
2814.63	33.1541
2827.21	34.4894
2839.79	37.3936
2852.36	33.946
2864.94	37.0579
2877.52	33.46
2890.09	29.175
2902.67	38.8171
2915.24	39.0705
2927.82	36.9694
2940.4	38.7657
2952.97	37.1343
2965.55	40.4186
2978.125	42.5642
2990.7	33.8769
3003.28	41.5529
3015.85	41.6044
3028.43	37.7992
3041.01	40.8654
3053.58	36.7682
3066.16	38.6849
3078.73	39.6747
3091.31	45.4732
3103.89	38.4545
3116.46	36.117
3129.04	37.5531
3141.62	41.8741
3154.19	42.7482
3166.77	41.577
3179.34	44.2442
3191.92	44.764
3204.5	49.0676
3217.07	40.0247
3229.65	41.1985
3242.23	47.1852
3254.8	42.7976
3267.38	44.4883
3279.95	47.4916
3292.53	39.9975
3305.11	48.4547
3317.68	50.2037
3330.26	53.8378
3342.84	50.3317
3355.41	43.9812
3367.99	50.4938
3380.56	47.1817
3393.14	51.059
3405.72	47.384
3418.29	51.2609
3430.87	47.5109
3443.45	52.5295
3456.02	52.2559
3468.6	46.9462
3481.17	52.2968
3493.75	47.7031
3506.33	54.8557
3518.9	46.6293
3531.48	50.1289
3544.05	53.5969
3556.63	56.9952
3569.21	56.019
3581.78	46.6794
3594.36	57.6866
3606.94	54.2779
3619.51	56.5785
3632.09	54.1942
3644.66	64.2589
3657.24	59.4613
3669.82	51.3388
3682.39	55.2067
3694.97	57.4876
3700	57.678