File: Example Data/Raman/Kara/05-23-2011/glass_1.txt
200	3258.2
209.927	3376.47
219.853	3340.38
229.78	3339.49
239.706	3343.89
249.633	3350
259.559	3332.55
269.486	3349.97
279.413	3400.74
289.339	3432.06
299.266	3441.87
309.192	3455.79
319.119	3455.54
329.045	3524.55
338.972	3549.83
348.898	3610.93
358.825	3641
368.752	3647.22
378.678	3684.13
388.605	3668.1
398.531	3720.62
408.458	3758.27
418.384	3788.53
428.311	3831.24
438.238	3883.69
448.164	3881.35
458.091	3886.07
468.017	3876.86
477.944	3872.94
487.87	3831.78
497.797	3804.02
507.723	3819.16
517.65	3861.77
527.577	4097.57
537.503	4417.67
547.43	4732.15
557.356	4804.75
567.283	4713.7
577.209	4518.8
587.136	4302.07
597.063	4067.57
606.989	3839.68
616.916	3535.98
626.842	3298.35
636.769	3142.33
646.695	2954.33
656.622	2734.52
666.549	2561.73
676.475	2409.5
686.402	2210.71
696.328	2064.67
706.255	1961.82
716.181	1869.94
726.108	1813.7
736.034	1789.55
745.961	1787.94
755.888	1802.25
765.814	1873.52
775.741	1897.73
785.667	1888.84
795.594	1854.78
805.52	1821.16
815.447	1710.3
825.374	1610.4
835.3	1550.37
845.227	1471.5
855.153	1447.95
865.08	1438.45
875.006	1450.48
884.933	1444.84
894.859	1471.05
904.786	1537.65
914.713	1626.76
924.639	1748.94
934.566	1895.54
944.492	1994.58
954.419	2029.68
964.345	2025.04
974.272	2169.82
984.199	2366.82
994.125	2374.4
1004.05	2356.94
1013.98	2451.56
1023.9	2606.11
1033.83	2864.6
1043.76	3092.16
1053.68	3395.95
1063.61	3709.8
1073.54	4057.81
1083.46	4345.85
1093.39	4465.91
1103.32	4410.37
1113.24	4092.44
1123.17	3704.13
1133.1	3303.45
1143.02	2931.7
1152.95	2652.64
1162.88	2384.86
1172.8	2129.85
1182.73	1956.71
1192.66	1762.75
1202.58	1627.75
1212.51	1519.84
1222.44	1424.87
1232.36	1408.8
1242.29	1366.01
1252.22	1344.46
1262.14	1331.05
1272.07	1306.87
1282	1306.97
1291.92	1293.57
1301.85	1283.07
1311.78	1290.79
1321.7	1311.1
1331.63	1317.04
1341.55	1309.3
1351.48	1320.97
1361.41	1308.21
1371.33	1310.05
1381.26	1308.02
1391.19	1303.34
1401.11	1290.14
1411.04	1296.45
1420.97	1308.4
1430.89	1313.24
1440.82	1321.79
1450.75	1335.7
1460.67	1356.06
1470.6	1349.06
1480.53	1351.67
1490.45	1359.69
1500.38	1390.89
1510.31	1429.81
1520.23	1391.33
1530.16	1349.61
1540.09	1318.65
1550.01	1335.13
1559.94	1317.4
1569.87	1323.54
1579.79	1337.55
1589.72	1326.65
1599.65	1345.78
1609.57	1324.74
1619.5	1348.22
1629.43	1341.25
1639.35	1323.84
1649.28	1334.43
1659.2	1332.44
1669.13	1343.13
1679.06	1356.32
1688.98	1375.13
1698.91	1390.85
1708.84	1418.28
1718.76	1438.41
1728.69	1446.09
1738.62	1446.26
1748.54	1437.18
1758.47	1428.18
1768.4	1434.01
1778.32	1411.42
1788.25	1435.61
1798.18	1420.86
1808.1	1403.46
1818.03	1411.43
1827.96	1421.1
1837.88	1426.59
1847.81	1443.05
1857.74	1460.63
1867.66	1445.57
1877.59	1435.62
1887.52	1452.06
1897.44	1448.85
1907.37	1452.09
1917.3	1444.78
1927.22	1452.67
1937.15	1427.42
1947.08	1439.41
1957	1438.07
1966.93	1426.19
1976.85	1428.55
1986.78	1467.13
1996.71	1449.83
2006.63	1471.64
2016.56	1477.55
2026.49	1482.91
2036.41	1486.56
2046.34	1483.89
2056.27	1479.18
2066.19	1475.49
2076.12	1473.8
2086.05	1456
2095.97	1466.81
2105.9	1443.88
2115.83	1448.91
2125.75	1454.61
2135.68	1455.26
2145.61	1458.75
2155.53	1456.83
2165.46	1461.04
2175.39	1455.21
2185.31	1453.32
2195.24	1445.71
2205.17	1437.75
2215.09	1426.08
2225.02	1439.23
2234.95	1443.43
2244.87	1433.79
2254.8	1451.67
2264.73	1469.37
2274.65	1481.03
2284.58	1500.44
2294.5	1515.53
2304.43	1537.42
2314.36	1579.15
2324.28	1624.48
2334.21	1668.77
2344.14	1749.13
2354.06	1813.63
2363.99	1919.17
2373.92	2040.57
2383.84	2129.72
2393.77	2176.65
2403.7	2203
2413.62	2265.78
2423.55	2280.01
2433.48	2279.14
2443.4	2246.61
2453.33	2188.39
2463.26	2137.46
2473.18	2100.23
2483.11	2060.44
2493.04	2043.08
2502.96	2043.12
2512.89	2038.77
2522.82	2083.2
2532.74	2090.29
2542.67	2061.46
2552.6	2066.88
2562.52	2045.57
2572.45	2021.29
2582.38	1998.38
2592.3	1960.23
2602.23	1924.56
2612.16	1905.36
2622.08	1912.18
2632.01	1895.22
2641.93	1910.91
2651.86	1882.92
2661.79	1879.9
2671.71	1865.74
2681.64	1878.65
2691.57	1849.33
2701.49	1854.87
2711.42	1832.13
2721.35	1817.93
2731.27	1817.125
2741.2	1806.37
2751.13	1822.89
2761.05	1815.2
2770.98	1813.69
2780.91	1818.86
2790.83	1825.74
2800.76	1825.57
2810.69	1832.38
2820.61	1829.62
2830.54	1842.74
2840.47	1842.24
2850.39	1838.56
2860.32	1838.29
2870.25	1839.57
2880.17	1868.61
2890.1	1857.46
2900.03	1889.75
2909.95	1888.65
2919.88	1879.48
2929.8	1902.18
2939.73	1898.14
2949.66	1910.32
2959.58	1911.81
2969.51	1922.52
2979.44	1895.21
2989.36	1908.5
2999.29	1931.04
3000	1925.99