File: Example Data/Raman/Kara/05-23-2011/Owen CNT_1.txt
300	-172.285
307.74	-173.016
315.481	-173.773
323.221	-174.792
330.962	-175.152
338.702	-174.459
346.443	-174.605
354.183	-173.425
361.923	-174.595
369.664	-175.026
377.404	-175.36
385.145	-175.673
392.885	-173.147
400.625	-172.5
408.366	-173.632
416.106	-172.089
423.847	-169.697
431.587	-171.631
439.328	-171.105
447.068	-172.861
454.808	-172.683
462.549	-170.86
470.289	-172.232
478.03	-171.403
485.77	-171.755
493.511	-172.726
501.251	-171.623
508.991	-170.765
516.732	-172.436
524.472	-170.177
532.213	-171.68
539.953	-171.6
547.693	-171.389
555.434	-172.645
563.174	-169.523
570.915	-168.368
578.655	-170.126
586.396	-168.314
594.136	-168.778
601.876	-168.68
609.617	-167.673
617.357	-166.921
625.098	-168.95
632.838	-166.685
640.579	-167.657
648.319	-169.618
656.059	-168.806
663.8	-167.036
671.54	-168.538
679.281	-168.351
687.021	-168.318
694.762	-168.008
702.502	-166.832
710.242	-166.552
717.983	-166.664
725.723	-164.528
733.464	-163.961
741.204	-166.503
748.944	-164.497
756.685	-164.676
764.425	-165.122
772.166	-163.958
779.906	-163.284
787.647	-163.507
795.387	-162.797
803.127	-161.831
810.868	-160.425
818.608	-162.297
826.349	-162.259
834.089	-160.966
841.83	-160.311
849.57	-160.457
857.31	-158.795
865.051	-158.006
872.791	-157.534
880.532	-157.404
888.272	-154.16
896.013	-157.191
903.753	-155.032
911.493	-154.756
919.234	-155.085
926.974	-153.674
934.715	-152.834
942.455	-151.53
950.195	-149.23
957.936	-148.255
965.676	-147.183
973.417	-145.1
981.157	-144.759
988.898	-142.469
996.638	-139.961
1004.38	-138.082
1012.12	-135.004
1019.86	-132.101
1027.6	-128.016
1035.34	-125.138
1043.08	-119.585
1050.82	-116.283
1058.56	-103.734
1066.3	-91.6637
1074.04	-82.8777
1081.78	-75.117
1089.52	-66.8277
1097.26	-60.1736
1105	-54.1603
1112.74	-51.9123
1120.48	-53.3048
1128.23	-53.6481
1135.97	-61.9947
1143.71	-60.874
1151.45	-59.0444
1159.19	-59.1645
1166.93	-58.7721
1174.67	-59.2426
1182.41	-58.6069
1190.15	-57.1966
1197.89	-57.84
1205.63	-55.0346
1213.37	-57.5973
1221.11	-59.4963
1228.85	-57.1268
1236.59	-56.1265
1244.33	-57.5479
1252.07	-56.4414
1259.81	-57.1778
1267.55	-56.2276
1275.29	-56.2868
1283.03	-54.5728
1290.77	-54.5743
1298.51	-54.0203
1306.25	-55.5883
1314	-52.7715
1321.74	-55.5848
1329.48	-52.6215
1337.22	-53.0721
1344.96	-51.5007
1352.7	-52.0918
1360.44	-48.8827
1368.18	-52.1429
1375.92	-52.4114
1383.66	-53.5239
1391.4	-52.3148
1399.14	-53.3074
1406.88	-52.0563
1414.62	-50.7377
1422.36	-52.579
1430.1	-52.0074
1437.84	-50.2219
1445.58	-51.821
1453.32	-49.6503
1461.06	-48.868
1468.8	-48.4837
1476.54	-48.5597
1484.28	-48.1555
1492.03	-45.7027
1499.77	-47.4681
1507.51	-45.8075
1515.25	-46.7868
1522.99	-45.2759
1530.73	-44.567
1538.47	-44.7106
1546.21	-44.0041
1553.95	-42.7397
1561.69	-42.9672
1569.43	-41.9074
1577.17	-41.6039
1584.91	-39.6157
1592.65	-38.816
1600.39	-38.2345
1608.13	-38.0167
1615.87	-37.9108
1623.61	-33.5119
1631.35	-33.9634
1639.09	-34.2868
1646.83	-33.5025
1654.57	-30.1631
1662.31	-29.4979
1670.05	-28.5774
1677.8	-25.0116
1685.54	-23.4338
1693.28	-20.5801
1701.02	-18.6604
1708.76	-12.0086
1716.5	-8.44002
1724.24	-3.2433
1731.98	1.08472
1739.72	11.5524
1747.46	23.073
1755.2	31.5399
1762.94	43.0706
1770.68	51.5041
1778.42	58.6345
1786.16	61.7094
1793.9	62.2215
1801.64	60.1897
1809.38	56.1214
1817.12	55.4763
1824.86	56.3481
1832.6	55.4766
1840.34	55.6752
1848.08	55.1118
1855.82	55.5437
1863.57	54.1549
1871.31	54.101
1879.05	55.6667
1886.79	55.3895
1894.53	54.6909
1902.27	57.0874
1910.01	58.3868
1917.75	57.2731
1925.49	56.4965
1933.23	59.2399
1940.97	58.1458
1948.71	59.6078
1956.45	58.2296
1964.19	58.9272
1971.93	59.8265
1979.67	60.5686
1987.41	59.3417
1995.15	59.553
2002.89	61.3664
2010.63	59.8459
2018.37	61.2923
2026.11	61.5542
2033.85	59.9881
2041.59	60.4435
2049.34	61.8971
2057.08	62.6808
2064.82	62.1907
2072.56	61.2513
2080.3	62.8215
2088.04	60.4225
2095.78	63.2406
2103.52	64.9879
2111.26	65.3394
2119	63.9448
2126.74	66.1501
2134.48	66.8987
2142.22	67.4448
2149.96	69.3071
2157.7	68.7381
2165.44	68.3327
2173.18	68.4446
2180.92	70.1923
2188.66	68.4046
2196.4	70.2945
2204.14	71.1222
2211.88	71.5638
2219.62	72.1036
2227.36	72.5793
2235.11	72.1255
2242.85	74.9302
2250.59	74.9513
2258.33	75.8503
2266.07	77.2009
2273.81	78.4554
2281.55	80.9567
2289.29	82.295
2297.03	85.6917
2304.77	87.0879
2312.51	87.6105
2320.25	91.8965
2327.99	96.364
2335.73	100.75
2343.47	107.463
2351.21	114.069
2358.95	120.908
2366.69	130.131
2374.43	141.521
2382.17	153.003
2389.91	167.925
2397.65	185.187
2405.39	208.137
2413.14	233.741
2419.47	259.501