File: Example Data/Raman/Kara/05-23-2011/Owen CNT_2.txt
300	-148.863
306.115	-152.026
312.23	-150.012
318.345	-150.495
324.46	-149.864
330.576	-150.671
336.691	-153.738
342.806	-151.156
348.921	-150.194
355.036	-148.438
361.151	-150.332
367.266	-148.317
373.381	-152.055
379.496	-151.273
385.612	-150.893
391.727	-150.285
397.842	-150.326
403.957	-149.157
410.072	-148.044
416.187	-150.2
422.302	-148.036
428.417	-149.118
434.532	-148.2
440.647	-151.951
446.763	-148.523
452.878	-149.688
458.993	-146.551
465.108	-147.062
471.223	-148.499
477.338	-150.646
483.453	-147.144
489.568	-148.953
495.683	-148.035
501.799	-146.456
507.914	-147.305
514.029	-146.063
520.144	-146.779
526.259	-145.837
532.374	-144.771
538.489	-147.129
544.604	-144.592
550.719	-146.358
556.835	-146.533
562.95	-148.05
569.065	-141.883
575.18	-147.61
581.295	-145.341
587.41	-146.749
593.525	-145.054
599.64	-144.837
605.755	-145.561
611.87	-146.096
617.986	-146.852
624.101	-147.308
630.216	-145.694
636.331	-143.949
642.446	-145.111
648.561	-144.834
654.676	-147.723
660.791	-141.871
666.906	-144.723
673.022	-141.444
679.137	-142.144
685.252	-141.006
691.367	-143.229
697.482	-143.67
703.597	-141.531
709.712	-141.365
715.827	-140.581
721.942	-139.769
728.058	-138.992
734.173	-138.79
740.288	-139.181
746.403	-138.414
752.518	-138.4
758.633	-136.5
764.748	-138.869
770.863	-138.872
776.978	-136.462
783.094	-137.532
789.209	-136.505
795.324	-135.601
801.439	-137.281
807.554	-136.884
813.669	-137.586
819.784	-134.997
825.899	-133.905
832.014	-137.003
838.13	-135.426
844.245	-134.528
850.36	-133.9
856.475	-133.333
862.59	-133.095
868.705	-133.878
874.82	-132.443
880.935	-131.1
887.05	-131.527
893.165	-132.262
899.281	-130.427
905.396	-129.563
911.511	-131.787
917.626	-131.815
923.741	-129.713
929.856	-128.73
935.971	-129.908
942.086	-126.952
948.201	-126.444
954.317	-124.548
960.432	-124.784
966.547	-125.066
972.662	-123.202
978.777	-123.319
984.892	-121.406
991.007	-122.785
997.122	-120.32
1003.24	-115.553
1009.35	-112.247
1015.47	-110.556
1021.58	-110.216
1027.7	-109.046
1033.81	-104.616
1039.93	-102.024
1046.04	-100.044
1052.16	-96.3568
1058.27	-86.3744
1064.39	-81.2327
1070.5	-72.7558
1076.62	-66.5941
1082.73	-60.3786
1088.85	-54.7459
1094.96	-52.8373
1101.08	-48.4157
1107.19	-43.7205
1113.31	-42.0162
1119.42	-42.1881
1125.54	-43.6267
1131.65	-49.8622
1137.77	-46.2497
1143.88	-47.1935
1150	-48.4617
1156.12	-47.7976
1162.23	-48.3191
1168.35	-50.4779
1174.46	-49.8897
1180.58	-47.6493
1186.69	-48.0907
1192.81	-46.3122
1198.92	-49.3298
1205.04	-45.6579
1211.15	-47.9936
1217.27	-48.5568
1223.38	-47.0358
1229.5	-47.8567
1235.61	-44.0286
1241.73	-44.8326
1247.84	-45.4407
1253.96	-44.8461
1260.07	-44.3561
1266.19	-47.306
1272.3	-45.0343
1278.42	-46.3381
1284.53	-44.5774
1290.65	-42.9233
1296.76	-43.7875
1302.88	-43.3598
1308.99	-40.1497
1315.11	-41.2417
1321.22	-41.7099
1327.34	-39.7696
1333.45	-40.9724
1339.57	-37.813
1345.68	-37.3999
1351.8	-37.9541
1357.91	-40.608
1364.03	-41.9032
1370.14	-37.9329
1376.26	-39.5435
1382.37	-38.5971
1388.49	-40.3233
1394.6	-39.7747
1400.72	-41.932
1406.83	-39.0913
1412.95	-39.8686
1419.06	-39.7722
1425.18	-38.9477
1431.29	-38.0982
1437.41	-37.4879
1443.53	-35.4508
1449.64	-39.3143
1455.76	-37.123
1461.87	-37.5485
1467.99	-36.7233
1474.1	-37.1013
1480.22	-35.5776
1486.33	-37.0068
1492.45	-34.5621
1498.56	-35.4323
1504.68	-33.9482
1510.79	-35.4938
1516.91	-32.5095
1523.02	-33.3559
1529.14	-30.6778
1535.25	-32.6936
1541.37	-32.6043
1547.48	-28.9204
1553.6	-29.5032
1559.71	-28.1432
1565.83	-25.8622
1571.94	-23.4643
1578.06	-21.5433
1584.17	-23.0634
1590.29	-20.4006
1596.4	-19.1298
1602.52	-20.2634
1608.63	-20.3921
1614.75	-16.1641
1620.86	-17.2904
1626.98	-17.1644
1633.09	-16.8064
1639.21	-17.1471
1645.32	-15.7434
1651.44	-15.9684
1657.55	-14.6423
1663.67	-12.8038
1669.78	-9.94854
1675.9	-11.1646
1682.01	-11.8276
1688.13	-10.4512
1694.24	-6.59924
1700.36	-5.52615
1706.47	-4.22037
1712.59	-3.4981
1718.71	-2.05885
1724.82	-0.297954
1730.94	1.99364
1737.05	3.03089
1743.17	1.49071
1749.28	4.20387
1755.4	4.89282
1761.51	4.4502
1767.63	4.91533
1773.74	6.06622
1779.86	4.93465
1785.97	5.052
1792.09	2.55192
1798.2	3.81391
1804.32	0.385066
1810.43	-0.532562
1816.55	-2.05644
1822.66	-0.913727
1828.78	-0.272781
1834.89	1.46577
1841.01	-2.07133
1847.12	-0.536087
1853.24	-1.14832
1859.35	-1.45581
1865.47	1.79498
1871.58	1.08003
1877.7	3.62775
1883.81	-0.00131226
1889.93	3.66446
1896.04	4.17929
1902.16	2.7215
1908.27	4.31732
1914.39	7.77422
1920.5	2.38925
1926.62	6.60745
1932.73	5.07076
1938.85	4.66576
1944.96	6.53667
1951.08	6.94768
1957.19	8.68063
1963.31	7.82768
1969.42	7.66772
1975.54	9.16086
1981.65	11.2195
1987.77	11.4169
1993.88	12.9821
2000	11.9223