File: Example Data/Raman/Kara/05-23-2011/Owen CNT_4.txt
1000	-172.601
1003.65	-174.4
1007.3	-174.065
1010.95	-173.176
1014.6	-175.325
1018.25	-173.914
1021.9	-175.532
1025.55	-172.577
1029.2	-175.656
1032.85	-172.107
1036.5	-174.128
1040.15	-174
1043.8	-173.741
1047.45	-173.947
1051.09	-174.417
1054.74	-176.326
1058.39	-174.288
1062.04	-174.44
1065.69	-174.275
1069.34	-172.844
1072.99	-171.302
1076.64	-171.786
1080.29	-172.473
1083.94	-173.87
1087.59	-174.892
1091.24	-173.4375
1094.89	-172.701
1098.54	-174.95
1102.19	-173
1105.84	-175.511
1109.49	-172.961
1113.14	-174.881
1116.79	-174.578
1120.44	-173.962
1124.09	-173.879
1127.74	-171.665
1131.39	-173.318
1135.04	-172.906
1138.69	-176.228
1142.34	-173.728
1145.99	-173.681
1149.64	-172.326
1153.28	-173.414
1156.93	-172.146
1160.58	-172.347
1164.23	-172.441
1167.88	-173.122
1171.53	-172.696
1175.18	-175.488
1178.83	-171.295
1182.48	-171.829
1186.13	-172.241
1189.78	-172.052
1193.43	-171.456
1197.08	-172.556
1200.73	-171.544
1204.38	-170.622
1208.03	-172.362
1211.68	-171.447
1215.33	-173.017
1218.98	-170.979
1222.63	-171.028
1226.28	-172.173
1229.93	-170.943
1233.58	-168.897
1237.23	-168.66
1240.88	-171.925
1244.53	-169.347
1248.18	-169.697
1251.82	-170.348
1255.47	-170.308
1259.12	-171.234
1262.77	-170.735
1266.42	-168.397
1270.07	-170.354
1273.72	-168.519
1277.37	-168.864
1281.02	-170.86
1284.67	-166.871
1288.32	-171.728
1291.97	-169
1295.62	-168.818
1299.27	-168.31
1302.92	-167.929
1306.57	-170.943
1310.22	-166.8
1313.87	-167.8
1317.52	-167.285
1321.17	-168.689
1324.82	-166.43
1328.47	-167
1332.12	-164.362
1335.77	-162.675
1339.42	-163.908
1343.07	-163.728
1346.72	-163.597
1350.36	-159.736
1354.01	-163.623
1357.66	-161.8
1361.31	-162.514
1364.96	-161.8
1368.61	-165.732
1372.26	-163.531
1375.91	-166.743
1379.56	-165.655
1383.21	-162.601
1386.86	-167.026
1390.51	-163.372
1394.16	-166.938
1397.81	-163.742
1401.46	-162.7
1405.11	-164.791
1408.76	-162.665
1412.41	-162.578
1416.06	-160.434
1419.71	-159.643
1423.36	-162.002
1427.01	-162.111
1430.66	-163.459
1434.31	-163.427
1437.96	-163.4
1441.61	-160.473
1445.26	-161.429
1448.91	-162.757
1452.55	-161.027
1456.2	-161.083
1459.85	-160.491
1463.5	-161.514
1467.15	-162.719
1470.8	-160.383
1474.45	-161.394
1478.1	-160.717
1481.75	-158.825
1485.4	-157.431
1489.05	-159.27
1492.7	-158.925
1496.35	-156.192
1500	-154.366
1503.65	-154.866
1507.3	-153.058
1510.95	-153.782
1514.6	-153.444
1518.25	-151.583
1521.9	-152.746
1525.55	-151.114
1529.2	-151.441
1532.85	-149.685
1536.5	-148.59
1540.15	-148.593
1543.8	-148.213
1547.45	-148.071
1551.09	-147.724
1554.74	-146.096
1558.39	-145.827
1562.04	-143.282
1565.69	-142.956
1569.34	-140.45
1572.99	-138.554
1576.64	-140.051
1580.29	-139.106
1583.94	-139.773
1587.59	-138.48
1591.24	-135.236
1594.89	-135.739
1598.54	-134.001
1602.19	-134.869
1605.84	-134.947
1609.49	-134.825
1613.14	-131.646
1616.79	-133.588
1620.44	-131.04
1624.09	-130.73
1627.74	-130.551
1631.39	-130.523
1635.04	-130.196
1638.69	-128.831
1642.34	-131.061
1645.99	-128.72
1649.64	-127.848
1653.28	-127.802
1656.93	-124.467
1660.58	-126.332
1664.23	-126.131
1667.88	-125.112
1671.53	-121.756
1675.18	-121.646
1678.83	-121.278
1682.48	-121.121
1686.13	-120.322
1689.78	-120.809
1693.43	-120.321
1697.08	-118.309
1700.73	-116.999
1704.38	-117.827
1708.03	-117.395
1711.68	-116.53
1715.33	-118.348
1718.98	-116.935
1722.63	-115.246
1726.28	-114.844
1729.93	-116.625
1733.58	-115.259
1737.23	-115.838
1740.88	-115.582
1744.53	-115.933
1748.18	-118.069
1751.82	-117.093
1755.47	-121.437
1759.12	-123.745
1762.77	-121.113
1766.42	-120.295
1770.07	-121.006
1773.72	-124.18
1777.37	-122.129
1781.02	-121.364
1784.67	-122.267
1788.32	-123.957
1791.97	-121.327
1795.62	-121.111
1799.27	-119.526
1802.92	-118.134
1806.57	-120.589
1810.22	-118.399
1813.87	-119.594
1817.52	-119.008
1821.17	-117.627
1824.82	-120.642
1828.47	-118.8
1832.12	-117.554
1835.77	-117.684
1839.42	-116.615
1843.07	-116.577
1846.72	-115.767
1850.36	-117.151
1854.01	-118.488
1857.66	-119.981
1861.31	-117.347
1864.96	-116.139
1868.61	-117.172
1872.26	-118.397
1875.91	-116.997
1879.56	-115.882
1883.21	-115.017
1886.86	-114.224
1890.51	-116.675
1894.16	-118.611
1897.81	-114.405
1901.46	-113.57
1905.11	-113.734
1908.76	-115.013
1912.41	-113.276
1916.06	-114.108
1919.71	-113.115
1923.36	-112.542
1927.01	-114.015
1930.66	-112.885
1934.31	-113.522
1937.96	-113.815
1941.61	-110.26
1945.26	-110.106
1948.91	-112.119
1952.55	-111.58
1956.2	-111.791
1959.85	-112.293
1963.5	-111.232
1967.15	-110.491
1970.8	-111.036
1974.45	-109.813
1978.1	-109.829
1981.75	-109.353
1985.4	-106.977
1989.05	-105.208
1992.7	-107.896
1996.35	-104.001
2000	-106.472