File: Example Data/Raman/Kara/05-23-2011/Owen CNT_5.txt
1000	-177.408
1005.45	-171.962
1010.9	-173.363
1016.35	-174.834
1021.8	-174.417
1027.25	-170.896
1032.7	-171.542
1038.15	-173.111
1043.6	-174.278
1049.05	-175.657
1054.5	-174.317
1059.95	-171.957
1065.4	-175.375
1070.84	-173.093
1076.29	-171.753
1081.74	-173.299
1087.19	-172.527
1092.64	-174.849
1098.09	-173.562
1103.54	-171.056
1108.99	-173.559
1114.44	-170.558
1119.89	-171.437
1125.34	-172.609
1130.79	-171.494
1136.24	-171.153
1141.69	-171.277
1147.14	-172.733
1152.59	-170.682
1158.04	-170.839
1163.49	-171.167
1168.94	-172.6
1174.39	-172.052
1179.84	-171.128
1185.29	-173.472
1190.74	-172.314
1196.19	-169.728
1201.63	-170.298
1207.08	-171
1212.53	-169.439
1217.98	-172.249
1223.43	-169.822
1228.88	-171.603
1234.33	-168.001
1239.78	-170.425
1245.23	-170.127
1250.68	-170.342
1256.13	-170.036
1261.58	-169.569
1267.03	-168.779
1272.48	-170.959
1277.93	-168.318
1283.38	-167.681
1288.83	-167.651
1294.28	-168.139
1299.73	-169.1
1305.18	-167.594
1310.63	-168.365
1316.08	-169.701
1321.53	-166.364
1326.98	-164.205
1332.43	-163.326
1337.87	-161.004
1343.32	-164.17
1348.77	-159.854
1354.22	-162.62
1359.67	-159.288
1365.12	-162.538
1370.57	-161.526
1376.02	-164.429
1381.47	-163.841
1386.92	-166.186
1392.37	-167.949
1397.82	-166.653
1403.27	-169.148
1408.72	-171.079
1414.17	-164.881
1419.62	-168.934
1425.07	-167.192
1430.52	-168.292
1435.97	-171.65
1441.42	-169.943
1446.87	-169.895
1452.32	-168.381
1457.77	-165.769
1463.22	-167.4
1468.66	-167.633
1474.11	-168.054
1479.56	-168.73
1485.01	-168.72
1490.46	-168.113
1495.91	-169.37
1501.36	-168.8
1506.81	-168.6
1512.26	-166.587
1517.71	-166.062
1523.16	-166.706
1528.61	-166.079
1534.06	-166.554
1539.51	-167.539
1544.96	-166.497
1550.41	-163.746
1555.86	-163.8
1561.31	-164.404
1566.76	-160.695
1572.21	-161.811
1577.66	-158.44
1583.11	-157.618
1588.56	-155.94
1594.01	-156.745
1599.46	-154.687
1604.9	-155.288
1610.35	-158.528
1615.8	-160.954
1621.25	-158.804
1626.7	-157.004
1632.15	-162.961
1637.6	-165.356
1643.05	-161.946
1648.5	-161.828
1653.95	-165.246
1659.4	-167.97
1664.85	-165.348
1670.3	-167.967
1675.75	-166.735
1681.2	-164.574
1686.65	-166.065
1692.1	-167.214
1697.55	-166.698
1703	-168.013
1708.45	-166.018
1713.9	-163.294
1719.35	-165.981
1724.8	-165.435
1730.25	-165.467
1735.69	-166.871
1741.14	-164.863
1746.59	-166.4
1752.04	-164.167
1757.49	-166.014
1762.94	-162.892
1768.39	-163.436
1773.84	-166.384
1779.29	-162.703
1784.74	-163.132
1790.19	-161.979
1795.64	-164.159
1801.09	-165.593
1806.54	-163.842
1811.99	-163.512
1817.44	-165.083
1822.89	-164.867
1828.34	-163.51
1833.79	-163.347
1839.24	-160.474
1844.69	-161.28
1850.14	-161.8
1855.59	-162.389
1861.04	-161.748
1866.48	-164.312
1871.93	-163.893
1877.38	-161.633
1882.83	-165.2
1888.28	-161.194
1893.73	-159.226
1899.18	-159.69
1904.63	-160.535
1910.08	-160.453
1915.53	-159.13
1920.98	-160.668
1926.43	-160.756
1931.88	-159.918
1937.33	-164.012
1942.78	-159.946
1948.23	-161.185
1953.68	-160.2
1959.13	-158.689
1964.58	-160.59
1970.03	-158.026
1975.48	-161.121
1980.93	-160.798
1986.38	-159.198
1991.83	-160.247
1997.28	-158.656
2000	-160.095