File: Example Data/Raman/Kara/05-23-2011/Owen CNT_3.txt
300	-204.657
306.115	-206.378
312.23	-204.282
318.345	-206.624
324.46	-204.835
330.576	-205.2
336.691	-206
342.806	-203.559
348.921	-203.135
355.036	-203.055
361.151	-205.834
367.266	-205.724
373.381	-203.145
379.496	-205.247
385.612	-206.991
391.727	-206.548
397.842	-203.725
403.957	-202.415
410.072	-204.267
416.187	-202.6
422.302	-201.097
428.417	-203.433
434.532	-204.054
440.647	-204.171
446.763	-205.379
452.878	-204.098
458.993	-203.167
465.108	-202.862
471.223	-202.452
477.338	-202.788
483.453	-200.824
489.568	-206.873
495.683	-205.426
501.799	-202.764
507.914	-204.608
514.029	-204.744
520.144	-203.441
526.259	-203.17
532.374	-201.284
538.489	-199.851
544.604	-199.404
550.719	-203.2
556.835	-202.528
562.95	-202.1
569.065	-198.683
575.18	-202.742
581.295	-201.422
587.41	-198.365
593.525	-202.098
599.64	-200.2
605.755	-200.173
611.87	-199.263
617.986	-201.984
624.101	-200.449
630.216	-199.129
636.331	-202.519
642.446	-201.108
648.561	-197.048
654.676	-199.68
660.791	-198.479
666.906	-197.88
673.022	-196.994
679.137	-196.108
685.252	-195
691.367	-193.742
697.482	-194.26
703.597	-195.738
709.712	-194.4
715.827	-193.291
721.942	-194.679
728.058	-195.277
734.173	-192.925
740.288	-194.2
746.403	-194.744
752.518	-192.964
758.633	-192.875
764.748	-189.397
770.863	-190.519
776.978	-192.982
783.094	-190.429
789.209	-189.084
795.324	-190.281
801.439	-191.111
807.554	-191.242
813.669	-190.924
819.784	-187.456
825.899	-189.264
832.014	-190.01
838.13	-189.712
844.245	-188.393
850.36	-189.686
856.475	-188.85
862.59	-185.206
868.705	-184.922
874.82	-186.435
880.935	-186.1
887.05	-183.982
893.165	-184.505
899.281	-182.854
905.396	-183.692
911.511	-182.174
917.626	-180.76
923.741	-180.037
929.856	-177.585
935.971	-178.261
942.086	-176.859
948.201	-177.839
954.317	-175.316
960.432	-175.957
966.547	-174.755
972.662	-170.201
978.777	-170.026
984.892	-168.486
991.007	-165.419
997.122	-165.96
1003.24	-162.977
1009.35	-158.429
1015.47	-158.449
1021.58	-155.192
1027.7	-148.758
1033.81	-147.426
1039.93	-143.802
1046.04	-139.711
1052.16	-132.324
1058.27	-133.944
1064.39	-133.508
1070.5	-134.415
1076.62	-134.773
1082.73	-135.338
1088.85	-137.89
1094.96	-141.513
1101.08	-147.215
1107.19	-153.096
1113.31	-159.975
1119.42	-172.168
1125.54	-183.243
1131.65	-199.014
1137.77	-197.76
1143.88	-198.814
1150	-197.997
1156.12	-199.104
1162.23	-198.843
1168.35	-198.823
1174.46	-198.3
1180.58	-196.775
1186.69	-196.859
1192.81	-198.236
1198.92	-195.754
1205.04	-198.147
1211.15	-198.132
1217.27	-197.393
1223.38	-195.484
1229.5	-196.44
1235.61	-195.609
1241.73	-193.922
1247.84	-195.529
1253.96	-195.571
1260.07	-193.76
1266.19	-193.691
1272.3	-197.286
1278.42	-195.307
1284.53	-195.054
1290.65	-195.197
1296.76	-195.2
1302.88	-195.785
1308.99	-192
1315.11	-196.543
1321.22	-193.009
1327.34	-194.754
1333.45	-192.278
1339.57	-191.483
1345.68	-191.211
1351.8	-191.797
1357.91	-191.939
1364.03	-191.365
1370.14	-193.986
1376.26	-192.8
1382.37	-192.179
1388.49	-192.889
1394.6	-193.398
1400.72	-192.287
1406.83	-193.898
1412.95	-193.949
1419.06	-193.102
1425.18	-191.71
1431.29	-191.132
1437.41	-190.548
1443.53	-188.798
1449.64	-188.651
1455.76	-190.28
1461.87	-190.593
1467.99	-189.804
1474.1	-189.486
1480.22	-193.773
1486.33	-190.21
1492.45	-188.967
1498.56	-190.855
1504.68	-190.282
1510.79	-188.252
1516.91	-187.406
1523.02	-185.783
1529.14	-186.275
1535.25	-184.35
1541.37	-187.643
1547.48	-182.254
1553.6	-183.998
1559.71	-183.532
1565.83	-182.157
1571.94	-180.747
1578.06	-181.744
1584.17	-178.062
1590.29	-179.291
1596.4	-179.62
1602.52	-178.585
1608.63	-177.262
1614.75	-177.856
1620.86	-175.85
1626.98	-175.654
1633.09	-175.53
1639.21	-175.877
1645.32	-176.276
1651.44	-174.813
1657.55	-175.076
1663.67	-174.668
1669.78	-172.551
1675.9	-172.299
1682.01	-171.476
1688.13	-170.086
1694.24	-170.691
1700.36	-167.487
1706.47	-168.541
1712.59	-167.589
1718.71	-168.55
1724.82	-167.301
1730.94	-166.276
1737.05	-168.088
1743.17	-164.591
1749.28	-165.15
1755.4	-163.997
1761.51	-163.936
1767.63	-164.549
1773.74	-162.162
1779.86	-165.848
1785.97	-166.515
1792.09	-168.542
1798.2	-169.241
1804.32	-176.427
1810.43	-176.14
1816.55	-176.236
1822.66	-176.417
1828.78	-174.517
1834.89	-170.948
1841.01	-171.751
1847.12	-169.858
1853.24	-174.054
1859.35	-171.651
1865.47	-171.367
1871.58	-168.77
1877.7	-171.603
1883.81	-171.581
1889.93	-170.122
1896.04	-170.923
1902.16	-169.575
1908.27	-170.199
1914.39	-170.655
1920.5	-169.899
1926.62	-168.188
1932.73	-167.692
1938.85	-170.12
1944.96	-165.121
1951.08	-167.927
1957.19	-166.886
1963.31	-166.071
1969.42	-165.091
1975.54	-164.86
1981.65	-162.699
1987.77	-162.266
1993.88	-162.916
2000	-163.995