File: Example Data/Raman/Kara/05-23-2011/Si wafer - n dopeAs_2.txt
200	213.199
210.757	211.888
221.514	239.354
232.271	274.699
243.028	271.769
253.785	284.447
264.542	300.998
275.299	302.069
286.056	333.959
296.813	375.454
307.57	384.677
318.327	313.54
329.084	276.491
339.841	250.633
350.598	237.619
361.355	223.891
372.112	206.838
382.869	191.329
393.625	181.266
404.382	170.161
415.139	168.658
425.896	177.057
436.653	177.617
447.41	142
458.167	106.976
468.924	117.385
479.681	133.346
490.438	187.924
501.195	294.076
511.952	1574.57
522.709	10555.6
533.466	1444.07
544.223	274.34
554.98	150.62
565.737	108.303
576.494	94.1699
587.251	86.7372
598.008	83.8231
608.765	102.422
619.522	125.035
630.279	114.799
641.036	109.316
651.793	111.808
662.55	119.167
673.307	126.634
684.064	109.065
694.821	90.7178
705.578	86.5065
716.335	85.3185
727.092	82.9458
737.849	88.3068
748.606	102.388
759.363	101.634
770.12	108.604
780.876	117.858
791.633	121.463
802.39	129.49
813.147	141.148
823.904	146.313
834.661	136.943
845.418	141.98
856.175	138.003
866.932	141.403
877.689	133.179
888.446	125.585
899.203	130.388
909.96	116.986
920.717	122.885
931.474	223.254
942.231	477.963
952.988	518.127
963.745	518.749
974.502	524.57
985.259	515.484
996.016	330.054
1006.77	195.612
1017.53	139.074
1028.29	108.96
1039.04	74.5509
1049.8	46.4946
1060.56	30.388
1071.31	25.1295
1082.07	21.3673
1092.83	20.8802
1103.59	18.2425
1114.34	15.3111
1125.1	10.0149
1135.86	7.4284
1146.61	6.12491
1157.37	4.60566
1168.13	2.91638
1178.88	-2.18997
1189.64	-1.32174
1200.4	-0.494044
1211.16	-4.05062
1221.91	-3.46964
1232.67	0.238548
1243.43	-5.34464
1254.18	-3.9382
1264.94	-4.36732
1275.7	-4.88486
1286.45	-3.8293
1297.21	-5.99018
1307.97	-0.632823
1318.73	-3.4216
1329.48	-1.83104
1340.24	-3.49951
1351	1.24604
1361.75	1.01262
1372.51	-1.03295
1383.27	-0.277929
1394.02	1.13283
1404.78	0.850646
1415.54	-1.53802
1426.29	-1.25801
1437.05	-1.20154
1447.81	5.49706
1458.57	4.26013
1469.32	-0.017826
1480.08	-0.803716
1490.84	-4.17849
1501.59	-3.59138
1512.35	-3.976
1523.11	-5.49492
1533.86	-8.71496
1544.62	-6.59977
1555.38	9.62087
1566.14	-6.32455
1576.89	-7.25785
1587.65	-9.65078
1598.41	-6.61376
1609.16	-7.95245
1619.92	-6.76121
1630.68	-6.84549
1641.43	-7.87993
1652.19	-6.87342
1662.95	-5.49749
1673.71	-6.41887
1684.46	-9.6467
1695.22	-7.0195
1705.98	-6.59284
1716.73	-7.4888
1727.49	-6.03457
1738.25	-7.13332
1749	-5.65881
1759.76	-3.8745
1770.52	-4.01295
1781.27	-7.95583
1792.03	-3.23827
1802.79	-6.37007
1813.55	-3.71206
1824.3	-7.96344
1835.06	-7.40514
1845.82	-6.60469
1856.57	-6.53407
1867.33	-6.01123
1878.09	-4.97791
1888.84	-2.4156
1899.6	-6.66245
1910.36	-5.76044
1921.12	-2.96874
1931.87	-4.10924
1942.63	-3.29925
1953.39	-3.68578
1964.14	-5.82268
1974.9	-5.91886
1985.66	-1.91948
1996.41	-5.93941
2007.17	-2.01971
2017.93	-1.85257
2028.69	-0.917623
2039.44	-4.22734
2050.2	-1.87807
2060.96	0.134622
2071.71	2.39214
2082.47	0.167301
2093.23	-2.51067
2103.98	-3.0507
2114.74	-2.37673
2125.5	-0.462559
2136.25	0.426539
2147.01	-2.8844
2157.77	-0.301031
2168.53	-2.26125
2179.28	3.9106
2190.04	-1.13921
2200.8	-0.0351465
2211.55	2.85756
2222.31	2.39062
2233.07	5.82616
2243.82	-0.654884
2254.58	1.67132
2265.34	4.15829
2276.1	3.0501
2286.85	4.79782
2297.61	4.95163
2308.37	3.73951
2319.12	8.52271
2329.88	75.698
2340.64	7.14283
2351.39	3.84467
2362.15	7.56301
2372.91	7.78639
2383.67	6.76793
2394.42	10.4067
2405.18	13.2072
2415.94	11.147
2426.69	9.85712
2437.45	13.9888
2448.21	13.9202
2458.96	15.2953
2469.72	15.1439
2480.48	17.6942
2491.24	14.0305
2501.99	16.9981
2512.75	15.5552
2523.51	21.6909
2534.26	15.8918
2545.02	16.4811
2555.78	23
2566.53	19.2718
2577.29	20.5303
2588.05	22.0641
2598.8	22.6483
2609.56	22.0189
2620.32	25.5753
2631.08	23.5842
2641.83	25.8606
2652.59	24.7051
2663.35	28.5927
2674.1	28.7089
2684.86	32.9666
2695.62	34.4455
2706.37	33.3083
2717.13	36.4375
2727.89	37.8246
2738.65	37.9737
2749.4	43.7931
2760.16	43.7832
2770.92	45.243
2781.67	48.5152
2792.43	47.8712
2803.19	56.5939
2813.94	56.8395
2824.7	55.6986
2835.46	63.2199
2846.22	62.7965
2856.97	67.2526
2867.73	75.6974
2878.49	78.3267
2889.24	84.2204
2900	92.6232