File: Example Data/Raman/Kara/05-23-2011/Si wafer - n dopeAs_1.txt
200	95.3025
209.927	99.7615
219.853	106.632
229.78	131.577
239.706	131.37
249.633	142.074
259.559	142.684
269.486	151.365
279.413	160.208
289.339	176.661
299.266	237.083
309.192	173.196
319.119	149.985
329.045	140.442
338.972	124.339
348.898	118.262
358.825	110.792
368.752	102.511
378.678	100.112
388.605	88.5313
398.531	89.1119
408.458	89.6443
418.384	88.2742
428.311	92.6178
438.238	78.58
448.164	65.8878
458.091	50.0048
468.017	64.5601
477.944	74.9142
487.87	106.894
497.797	162.899
507.723	440.442
517.65	14147.3
527.577	561.162
537.503	176.187
547.43	94.385
557.356	63.8361
567.283	51.7928
577.209	43.4764
587.136	45.2595
597.063	47.0007
606.989	54.0029
616.916	66.0956
626.842	64.9722
636.769	58.0927
646.695	58.5515
656.622	66.4524
666.549	66.0708
676.475	63.1753
686.402	62.1476
696.328	50.1386
706.255	49.2644
716.181	49.9245
726.108	51.3118
736.034	50.821
745.961	59.7232
755.888	62.7842
765.814	65.5131
775.741	64.7074
785.667	69.1125
795.594	78.0629
805.52	80.1118
815.447	92.4559
825.374	90.2371
835.3	87.4362
845.227	87.9975
855.153	85.9917
865.08	81.4565
875.006	77.9582
884.933	76.9541
894.859	72.5678
904.786	74.7567
914.713	67.6423
924.639	99.9363
934.566	251.248
944.492	316.654
954.419	321.601
964.345	323.168
974.272	328.432
984.199	306.761
994.125	166.572
1004.05	125.274
1013.98	103.431
1023.9	81.4002
1033.83	69.6823
1043.76	50.0203
1053.68	45.0734
1063.61	42.1295
1073.54	41.9554
1083.46	39.0628
1093.39	38.7375
1103.32	35.4701
1113.24	33.5519
1123.17	34.3924
1133.1	34.1667
1143.02	28.5483
1152.95	29.6831
1162.88	28.4332
1172.8	28.4567
1182.73	26.3322
1192.66	26.2335
1202.58	27.0749
1212.51	25.878
1222.44	28.1914
1232.36	25.5588
1242.29	26.2978
1252.22	25.9117
1262.14	27.3003
1272.07	23.552
1282	26.4106
1291.92	25.7483
1301.85	27.1619
1311.78	25.8704
1321.7	28.258
1331.63	25.7409
1341.55	26.3205
1351.48	28.4028
1361.41	31.355
1371.33	28.1482
1381.26	27.814
1391.19	25.2372
1401.11	25.754
1411.04	26.4966
1420.97	28.8806
1430.89	27.1078
1440.82	28.7686
1450.75	28.0444
1460.67	29.9657
1470.6	28.7059
1480.53	27.3983
1490.45	26.8862
1500.38	27.4135
1510.31	27.9074
1520.23	24.1084
1530.16	24.944
1540.09	27.7619
1550.01	29.5051
1559.94	26.7536
1569.87	28.2653
1579.79	27.5828
1589.72	29.9796
1599.65	32.1583
1609.57	28.9673
1619.5	33.1982
1629.43	31.9207
1639.35	33.5619
1649.28	35.232
1659.2	39.5711
1669.13	43.3646
1679.06	46.433
1688.98	49.26
1698.91	51.444
1708.84	51.7128
1718.76	52.31
1728.69	50.225
1738.62	53.193
1748.54	51.9877
1758.47	52.8696
1768.4	51.7691
1778.32	51.6156
1788.25	52.2732
1798.18	51.5612
1808.1	52.7815
1818.03	49.4056
1827.96	54.134
1837.88	55.026
1847.81	54.4679
1857.74	54.0206
1867.66	54.8079
1877.59	54.3055
1887.52	52.0521
1897.44	55.5573
1907.37	54.7349
1917.3	53.8055
1927.22	55.2943
1937.15	54.6489
1947.08	55.962
1957	55.3367
1966.93	53.0454
1976.85	56.0004
1986.78	55.3035
1996.71	54.4744
2006.63	53.0491
2016.56	57.1212
2026.49	55.6918
2036.41	58.1962
2046.34	55.4295
2056.27	57.8515
2066.19	56.2989
2076.12	59.0836
2086.05	56.6348
2095.97	58.7025
2105.9	56.7716
2115.83	59.6194
2125.75	57.8415
2135.68	58.5695
2145.61	59.8517
2155.53	60.3537
2165.46	60.8765
2175.39	61.5853
2185.31	61.5431
2195.24	61.7971
2205.17	64.1159
2215.09	63.4305
2225.02	64.2481
2234.95	65.3265
2244.87	67.9516
2254.8	67.4044
2264.73	71.1133
2274.65	71.6482
2284.58	75.6912
2294.5	82.2563
2304.43	86.1564
2314.36	90.8108
2324.28	114.072
2334.21	93.5085
2344.14	92.5098
2354.06	88.9957
2363.99	90.3741
2373.92	91.709
2383.84	91.9893
2393.77	93.9346
2403.7	91.523
2413.62	92.4986
2423.55	94.0242
2433.48	91.7898
2443.4	91.0275
2453.33	92.9087
2463.26	91.0185
2473.18	94.3204
2483.11	93.9349
2493.04	94.0828
2502.96	94.0103
2512.89	91.6614
2522.82	93.2174
2532.74	95.1414
2542.67	92.4153
2552.6	94.9816
2562.52	92.1267
2572.45	98.9535
2582.38	96.6237
2592.3	98.0728
2602.23	94.1249
2612.16	93.5
2622.08	96.9403
2632.01	97.241
2641.93	97.8293
2651.86	98.1377
2661.79	98.6514
2671.71	99.0018
2681.64	101.5
2691.57	100.855
2701.49	100.991
2711.42	102.583
2721.35	103.365
2731.27	101.398
2741.2	101.825
2751.13	102.129
2761.05	103.665
2770.98	104.918
2780.91	105.395
2790.83	105.008
2800.76	106.331
2810.69	107.79
2820.61	106.102
2830.54	108.587
2840.47	108.657
2850.39	110.217
2860.32	109.231
2870.25	111.011
2880.17	112.02
2890.1	113.097
2900.03	112.337
2909.95	110.956
2919.88	115.287
2929.8	111.611
2939.73	111.556
2949.66	114.674
2959.58	111.46
2969.51	113.934
2979.44	115.04
2989.36	114.725
2999.29	116.818
3000	113.245