File: Example Data/Raman/CNT - TIM/Raytheon/Al foil/2010/05-13-10/R1-sideA.txt
300	358.951
306.115	389.618
312.23	382.695
318.345	380.445
324.46	370.554
330.576	382.566
336.691	378.674
342.806	365.723
348.921	371.033
355.036	358.916
361.151	358.843
367.266	351.976
373.381	363.801
379.496	358.665
385.612	352.899
391.727	350.324
397.842	345.188
403.957	336.603
410.072	334.77
416.187	352.934
422.302	330.703
428.417	328.736
434.532	323.991
440.647	334.079
446.763	324.235
452.878	327.303
458.993	330.614
465.108	311.584
471.223	306.678
477.338	304.255
483.453	298.92
489.568	293.859
495.683	300.152
501.799	300.797
507.914	279.124
514.029	284.925
520.144	289.353
526.259	284.919
532.374	279.721
538.489	292.437
544.604	280.919
550.719	287.933
556.835	291.514
562.95	290.334
569.065	302.357
575.18	293.885
581.295	297.4
587.41	315.232
593.525	293.631
599.64	285.852
605.755	291.447
611.87	305.596
617.986	298.232
624.101	300.76
630.216	304.203
636.331	314.271
642.446	301.464
648.561	305.01
654.676	311.908
660.791	330.703
666.906	316.905
673.022	327.633
679.137	321.957
685.252	313.045
691.367	312.052
697.482	323.744
703.597	333.245
709.712	337.687
715.827	325.978
721.942	347.937
728.058	345.65
734.173	351.969
740.288	365.892
746.403	361.857
752.518	368.381
758.633	374.289
764.748	381.251
770.863	376.19
776.978	386.721
783.094	373.296
789.209	388.45
795.324	369.398
801.439	402.403
807.554	392.899
813.669	406.601
819.784	420.383
825.899	402.92
832.014	414.852
838.13	420.268
844.245	429.579
850.36	410.259
856.475	414.315
862.59	414.692
868.705	399.694
874.82	385.731
880.935	397.346
887.05	377.279
893.165	369.829
899.281	360.319
905.396	355.076
911.511	351.364
917.626	331.473
923.741	342.965
929.856	336.267
935.971	342.885
942.086	337.728
948.201	345.97
954.317	343.761
960.432	336.403
966.547	355.4
972.662	346.24
978.777	354.077
984.892	348.143
991.007	360.389
997.122	367.591
1003.24	384.203
1009.35	398.532
1015.47	403.133
1021.58	403.353
1027.7	423.983
1033.81	419.749
1039.93	447.046
1046.04	451.792
1052.16	476.529
1058.27	468.135
1064.39	477.336
1070.5	476.616
1076.62	486.852
1082.73	484.72
1088.85	497.733
1094.96	506.146
1101.08	506.728
1107.19	517.281
1113.31	547.933
1119.42	537.594
1125.54	546.569
1131.65	574
1137.77	582.772
1143.88	627.27
1150	641.38
1156.12	661.119
1162.23	677.007
1168.35	687.439
1174.46	684.25
1180.58	701.789
1186.69	704.305
1192.81	730.776
1198.92	740.247
1205.04	755.613
1211.15	777.993
1217.27	808.109
1223.38	827.514
1229.5	842.463
1235.61	881.19
1241.73	911.788
1247.84	976.04
1253.96	997.149
1260.07	1053.51
1266.19	1078.33
1272.3	1111.77
1278.42	1172.86
1284.53	1260.26
1290.65	1322.58
1296.76	1384.82
1302.88	1437.55
1308.99	1544.8
1315.11	1649.57
1321.22	1710.36
1327.34	1827.11
1333.45	1817.3
1339.57	1833.15
1345.68	1882.41
1351.8	1843.31
1357.91	1789.11
1364.03	1745.68
1370.14	1634.14
1376.26	1597.24
1382.37	1543.25
1388.49	1446.56
1394.6	1393.86
1400.72	1332.06
1406.83	1323.2
1412.95	1250.99
1419.06	1174.59
1425.18	1170.63
1431.29	1144.74
1437.41	1123.58
1443.53	1121.39
1449.64	1095.91
1455.76	1085.9
1461.87	1067.93
1467.99	1083.88
1474.1	1052.71
1480.22	1074.19
1486.33	1057.38
1492.45	1067.64
1498.56	1096.77
1504.68	1079.72
1510.79	1107.69
1516.91	1091.8
1523.02	1138.97
1529.14	1171.08
1535.25	1195.22
1541.37	1203.01
1547.48	1269.18
1553.6	1356.24
1559.71	1444.25
1565.83	1524.04
1571.94	1632.88
1578.06	1747.08
1584.17	1851.19
1590.29	1899.65
1596.4	1891.01
1602.52	1850.31
1608.63	1708.76
1614.75	1548.88
1620.86	1376.25
1626.98	1182.23
1633.09	1034.02
1639.21	883.51
1645.32	761.858
1651.44	676.424
1657.55	583.564
1663.67	515.242
1669.78	464.262
1675.9	413.941
1682.01	376.318
1688.13	342.715
1694.24	314.946
1700.36	297.069
1706.47	286.807
1712.59	269.019
1718.71	251.392
1724.82	251.943
1730.94	241.871
1737.05	235.158
1743.17	235.303
1749.28	224.863
1755.4	220.88
1761.51	212.65
1767.63	212.653
1773.74	220.184
1779.86	210.597
1785.97	196.098
1792.09	206.647
1798.2	215.519
1804.32	202.629
1810.43	199.131
1816.55	206.544
1822.66	209.178
1828.78	209.059
1834.89	194.87
1841.01	204.492
1847.12	194.919
1853.24	210.797
1859.35	191.854
1865.47	197.566
1871.58	200.932
1877.7	208.404
1883.81	191.548
1889.93	201.574
1896.04	192
1902.16	193.43
1908.27	198.48
1914.39	191.159
1920.5	202.512
1926.62	187.921
1932.73	194.688
1938.85	197.564
1944.96	196.106
1951.08	181.516
1957.19	192.859
1963.31	183.137
1969.42	202.996
1975.54	200.203
1981.65	195.199
1987.77	200.46
1993.88	195.485
2000	197.393