File: Example Data/Raman/CNT - TIM/Raytheon/Al foil/2010/05-13-10/R1-sideB.txt
300	319.815
306.115	352.349
312.23	352.885
318.345	347.729
324.46	326.888
330.576	314.868
336.691	326.138
342.806	334.71
348.921	320.861
355.036	306.361
361.151	323.18
367.266	303.161
373.381	300.673
379.496	309.066
385.612	308.185
391.727	309.12
397.842	308.023
403.957	291.042
410.072	282.622
416.187	283.984
422.302	299.679
428.417	291.667
434.532	294.408
440.647	283.026
446.763	272.292
452.878	289.318
458.993	285.237
465.108	274.851
471.223	268.952
477.338	273.393
483.453	267.936
489.568	261.025
495.683	258.568
501.799	255.797
507.914	252.292
514.029	253.43
520.144	263.459
526.259	235.323
532.374	233.926
538.489	242.76
544.604	258.316
550.719	249.114
556.835	240.75
562.95	250.761
569.065	262.099
575.18	259
581.295	248.082
587.41	265.612
593.525	248.99
599.64	263.283
605.755	268.042
611.87	248.989
617.986	260.697
624.101	264.934
630.216	256.319
636.331	258.692
642.446	262.103
648.561	273.896
654.676	272.826
660.791	262.357
666.906	274.203
673.022	286.509
679.137	281.71
685.252	271.872
691.367	277.574
697.482	275.624
703.597	285.732
709.712	275.649
715.827	272.72
721.942	302.861
728.058	300.245
734.173	298.337
740.288	306.88
746.403	313.284
752.518	320.778
758.633	313.565
764.748	313.988
770.863	327.528
776.978	332.456
783.094	334.543
789.209	327.913
795.324	329.783
801.439	341.047
807.554	363
813.669	347.01
819.784	366.089
825.899	356.013
832.014	354.306
838.13	367.021
844.245	345.892
850.36	367.59
856.475	345.608
862.59	348.455
868.705	345.546
874.82	313.263
880.935	324.159
887.05	315.381
893.165	305.656
899.281	307.91
905.396	310.899
911.511	303.528
917.626	285.665
923.741	288.82
929.856	285.134
935.971	281.242
942.086	287.656
948.201	289.019
954.317	279.744
960.432	285.363
966.547	273.4
972.662	283.336
978.777	282.13
984.892	284.302
991.007	289.173
997.122	301.659
1003.24	311.037
1009.35	310.488
1015.47	329.405
1021.58	330.967
1027.7	337.434
1033.81	352.314
1039.93	360.227
1046.04	345.597
1052.16	368.922
1058.27	351.715
1064.39	376.7
1070.5	369.252
1076.62	375.836
1082.73	380.95
1088.85	398.164
1094.96	383.976
1101.08	395.526
1107.19	400.543
1113.31	394.211
1119.42	411.881
1125.54	422.752
1131.65	416.967
1137.77	435.254
1143.88	458.967
1150	458.76
1156.12	456.873
1162.23	473.985
1168.35	474.273
1174.46	481.05
1180.58	484.884
1186.69	504.087
1192.81	510.219
1198.92	527.293
1205.04	545.684
1211.15	538.546
1217.27	569.847
1223.38	592.839
1229.5	619.223
1235.61	646.269
1241.73	664.827
1247.84	682.422
1253.96	716.461
1260.07	758.54
1266.19	773.518
1272.3	825.324
1278.42	876.243
1284.53	919.119
1290.65	988.899
1296.76	1044.7
1302.88	1134.12
1308.99	1224.41
1315.11	1326.33
1321.22	1406.35
1327.34	1497.25
1333.45	1583.09
1339.57	1617.04
1345.68	1611.22
1351.8	1559.48
1357.91	1493.69
1364.03	1402.32
1370.14	1291.27
1376.26	1231.74
1382.37	1129.91
1388.49	1064.31
1394.6	1017.48
1400.72	966.318
1406.83	927.683
1412.95	881.057
1419.06	860.79
1425.18	842.233
1431.29	827
1437.41	799.188
1443.53	782.045
1449.64	784.006
1455.76	771.318
1461.87	765.094
1467.99	761.348
1474.1	772.485
1480.22	753.772
1486.33	737.749
1492.45	776.896
1498.56	784.38
1504.68	762.161
1510.79	778.399
1516.91	816.014
1523.02	834.83
1529.14	862.295
1535.25	919.856
1541.37	944.638
1547.48	1014.08
1553.6	1127.8
1559.71	1173.14
1565.83	1241.21
1571.94	1337.14
1578.06	1414.75
1584.17	1440.84
1590.29	1480.07
1596.4	1418.19
1602.52	1363.09
1608.63	1276.12
1614.75	1143.48
1620.86	1005.27
1626.98	859.608
1633.09	733.416
1639.21	632.68
1645.32	555.454
1651.44	497.084
1657.55	430.574
1663.67	378.027
1669.78	335.478
1675.9	311.574
1682.01	285.134
1688.13	262.93
1694.24	244.673
1700.36	235.638
1706.47	234.737
1712.59	216.888
1718.71	214.869
1724.82	215.839
1730.94	202.44
1737.05	204.006
1743.17	194.342
1749.28	189.703
1755.4	189.96
1761.51	188.125
1767.63	180.334
1773.74	187.016
1779.86	190.762
1785.97	174.55
1792.09	176.137
1798.2	181.954
1804.32	180.691
1810.43	172.257
1816.55	172.277
1822.66	168.02
1828.78	174.608
1834.89	171.504
1841.01	172.895
1847.12	175.737
1853.24	173.01
1859.35	171.17
1865.47	169.818
1871.58	158.756
1877.7	171.455
1883.81	166.869
1889.93	164.809
1896.04	166.358
1902.16	170.178
1908.27	160.324
1914.39	167.516
1920.5	159.302
1926.62	164.711
1932.73	165.277
1938.85	147.515
1944.96	158.181
1951.08	165.428
1957.19	152.978
1963.31	161.971
1969.42	162.358
1975.54	158.712
1981.65	171.137
1987.77	166.578
1993.88	162.943
2000	165.33