File: Example Data/Raman/CNT - TIM/Raytheon/Al foil/2010/05-13-10/R2-sideA.txt
300	347.428
306.115	350.277
312.23	346.385
318.345	353.223
324.46	353.645
330.576	352.113
336.691	326.007
342.806	340.394
348.921	325.469
355.036	344.352
361.151	317.027
367.266	335.281
373.381	322.081
379.496	327.327
385.612	325.132
391.727	320.45
397.842	328.573
403.957	324.986
410.072	303.333
416.187	311.161
422.302	309.148
428.417	307.932
434.532	312.942
440.647	288.735
446.763	283.691
452.878	292.853
458.993	284.821
465.108	302.257
471.223	289.665
477.338	277.94
483.453	266.07
489.568	278.908
495.683	264.766
501.799	252.29
507.914	265.271
514.029	262.247
520.144	251.04
526.259	257.734
532.374	244.634
538.489	258.563
544.604	261.347
550.719	262.455
556.835	256.119
562.95	265.207
569.065	261.486
575.18	263.588
581.295	274.536
587.41	281.444
593.525	277.081
599.64	275.657
605.755	270.145
611.87	262.763
617.986	267
624.101	272.196
630.216	265.602
636.331	276.246
642.446	273.558
648.561	281.889
654.676	286.551
660.791	300.661
666.906	284.035
673.022	283.73
679.137	300.15
685.252	279.124
691.367	286.84
697.482	299.787
703.597	295.18
709.712	298.135
715.827	305.957
721.942	312.43
728.058	311.124
734.173	324.049
740.288	326.185
746.403	315.019
752.518	335.666
758.633	340.796
764.748	334.497
770.863	339.257
776.978	364.313
783.094	346.726
789.209	354.131
795.324	364.464
801.439	364.615
807.554	348.687
813.669	370.447
819.784	359.411
825.899	360.385
832.014	369.292
838.13	385.529
844.245	398.12
850.36	367.544
856.475	389.211
862.59	366.176
868.705	360.19
874.82	349.985
880.935	329.178
887.05	339.646
893.165	331.773
899.281	326.078
905.396	316.729
911.511	329.467
917.626	317.502
923.741	307.787
929.856	309.935
935.971	303.818
942.086	304.054
948.201	305.044
954.317	304.647
960.432	308.634
966.547	302.867
972.662	312.977
978.777	295.138
984.892	319.866
991.007	325.045
997.122	329.357
1003.24	336.814
1009.35	342.117
1015.47	360.735
1021.58	368.325
1027.7	371.555
1033.81	373.905
1039.93	413.568
1046.04	403.937
1052.16	393.902
1058.27	400.668
1064.39	407.946
1070.5	422.902
1076.62	427.664
1082.73	434.075
1088.85	436.774
1094.96	442.831
1101.08	452.056
1107.19	470.823
1113.31	465.159
1119.42	470.491
1125.54	485.106
1131.65	485.992
1137.77	505.901
1143.88	492.32
1150	521.606
1156.12	543.066
1162.23	536.03
1168.35	550.955
1174.46	545.216
1180.58	583.555
1186.69	576.052
1192.81	590.539
1198.92	612.165
1205.04	631.607
1211.15	632.933
1217.27	640.87
1223.38	658.952
1229.5	684.893
1235.61	726.791
1241.73	750.416
1247.84	782.424
1253.96	815.328
1260.07	853.907
1266.19	899.731
1272.3	936.611
1278.42	991.894
1284.53	1035.18
1290.65	1110.05
1296.76	1215.22
1302.88	1302.09
1308.99	1379.89
1315.11	1528.8
1321.22	1606.13
1327.34	1751.92
1333.45	1858.5
1339.57	1908.72
1345.68	1904.14
1351.8	1811.57
1357.91	1744.46
1364.03	1658.03
1370.14	1559.33
1376.26	1454.51
1382.37	1363.29
1388.49	1288.69
1394.6	1229.07
1400.72	1135.95
1406.83	1116.08
1412.95	1044.25
1419.06	1018.76
1425.18	972.785
1431.29	970.055
1437.41	966.518
1443.53	935.969
1449.64	935.068
1455.76	922.783
1461.87	919.632
1467.99	921.316
1474.1	948.896
1480.22	930.714
1486.33	925.194
1492.45	955.139
1498.56	949.832
1504.68	937.571
1510.79	978.56
1516.91	971.236
1523.02	1016.05
1529.14	1089.88
1535.25	1134.43
1541.37	1209.11
1547.48	1291.89
1553.6	1456.92
1559.71	1581.88
1565.83	1687
1571.94	1828.4
1578.06	1961.78
1584.17	1989.52
1590.29	1977.54
1596.4	1919.88
1602.52	1837.75
1608.63	1725.82
1614.75	1539.63
1620.86	1360.28
1626.98	1189.39
1633.09	1007.36
1639.21	841.783
1645.32	745.626
1651.44	621.971
1657.55	540.334
1663.67	462.472
1669.78	399.824
1675.9	358.072
1682.01	336.627
1688.13	308.707
1694.24	288.773
1700.36	278.332
1706.47	255.892
1712.59	248.719
1718.71	248.161
1724.82	236.22
1730.94	232.516
1737.05	226.767
1743.17	220.516
1749.28	221.168
1755.4	207.692
1761.51	210.767
1767.63	216.268
1773.74	207.116
1779.86	202.59
1785.97	196.052
1792.09	210.098
1798.2	200.823
1804.32	193.728
1810.43	198.392
1816.55	202.307
1822.66	191.908
1828.78	190.722
1834.89	203.759
1841.01	196.412
1847.12	200.495
1853.24	188.997
1859.35	196.973
1865.47	196.157
1871.58	185.307
1877.7	195.805
1883.81	191.568
1889.93	190.769
1896.04	190.568
1902.16	193.196
1908.27	187.093
1914.39	194.916
1920.5	190.742
1926.62	190.584
1932.73	189.301
1938.85	174.798
1944.96	199.04
1951.08	194.68
1957.19	189.454
1963.31	180.632
1969.42	175.72
1975.54	187.994
1981.65	184.25
1987.77	181.821
1993.88	188.974
2000	182.492