File: Example Data/Raman/CNT - TIM/Raytheon/Al foil/2010/05-13-10/R2-sideb.txt
300	119.982
306.115	138.148
312.23	119.94
318.345	117.191
324.46	115.45
330.576	116.862
336.691	134.289
342.806	111.367
348.921	122.105
355.036	117.901
361.151	123.391
367.266	114.295
373.381	118.895
379.496	114.8
385.612	117.387
391.727	112.509
397.842	106.158
403.957	113.128
410.072	109.23
416.187	111.197
422.302	104.187
428.417	106.266
434.532	107.727
440.647	105.388
446.763	101.687
452.878	107.227
458.993	107.271
465.108	107.803
471.223	99.7894
477.338	107.185
483.453	92.0938
489.568	90.5618
495.683	98.7863
501.799	90.7972
507.914	93.2927
514.029	89.9576
520.144	91.588
526.259	90.0925
532.374	94.7132
538.489	95.232
544.604	92.3614
550.719	97.1882
556.835	89.7716
562.95	98.1576
569.065	94.867
575.18	98.983
581.295	103.339
587.41	104.974
593.525	94.5627
599.64	95.3521
605.755	101.085
611.87	99.5327
617.986	104.252
624.101	98.4986
630.216	103.333
636.331	97.5897
642.446	96.0748
648.561	104.82
654.676	105.451
660.791	110.067
666.906	113.246
673.022	113.155
679.137	119.005
685.252	114.005
691.367	110.613
697.482	117.232
703.597	117.203
709.712	119.6
715.827	115.909
721.942	114.192
728.058	120.405
734.173	126.774
740.288	127.747
746.403	126.72
752.518	137.397
758.633	132.709
764.748	131.672
770.863	139.84
776.978	130.983
783.094	139.743
789.209	142.29
795.324	138.491
801.439	148.012
807.554	130.374
813.669	146.317
819.784	141.5
825.899	149.92
832.014	147.354
838.13	147.428
844.245	154.075
850.36	154.99
856.475	143.477
862.59	152.359
868.705	148.259
874.82	147.967
880.935	134.233
887.05	130.449
893.165	137.844
899.281	125.983
905.396	123.753
911.511	125.534
917.626	118.774
923.741	117.618
929.856	111.332
935.971	112.345
942.086	111.025
948.201	110.064
954.317	113.471
960.432	107.795
966.547	109.733
972.662	110.597
978.777	114.803
984.892	123.205
991.007	121.043
997.122	110.976
1003.24	126.871
1009.35	125.244
1015.47	128.133
1021.58	136.716
1027.7	139.412
1033.81	132.033
1039.93	139.33
1046.04	152.866
1052.16	153.098
1058.27	159.28
1064.39	159.872
1070.5	152.082
1076.62	159.439
1082.73	158.206
1088.85	169.627
1094.96	163.763
1101.08	180.355
1107.19	180.974
1113.31	176.371
1119.42	184.563
1125.54	188.572
1131.65	192.958
1137.77	187.411
1143.88	212.438
1150	216.998
1156.12	217.805
1162.23	229.715
1168.35	239.179
1174.46	236.725
1180.58	233.992
1186.69	227.394
1192.81	238.965
1198.92	261.884
1205.04	260.112
1211.15	255.941
1217.27	269.442
1223.38	271.028
1229.5	284.823
1235.61	295.891
1241.73	298.455
1247.84	312.638
1253.96	322.887
1260.07	337.46
1266.19	372.154
1272.3	378.687
1278.42	391.739
1284.53	409.085
1290.65	456.873
1296.76	464.534
1302.88	500.819
1308.99	528.412
1315.11	560.847
1321.22	602.314
1327.34	604.973
1333.45	656.492
1339.57	662.695
1345.68	664.655
1351.8	673
1357.91	642.795
1364.03	648.563
1370.14	629.239
1376.26	577.003
1382.37	531.192
1388.49	527.205
1394.6	492.972
1400.72	466.195
1406.83	454.771
1412.95	434.248
1419.06	424.415
1425.18	428.268
1431.29	400.389
1437.41	397.185
1443.53	387.002
1449.64	376.078
1455.76	375.965
1461.87	386.596
1467.99	377.669
1474.1	379.868
1480.22	382.101
1486.33	370.231
1492.45	367.826
1498.56	383.368
1504.68	367.414
1510.79	376.617
1516.91	384.613
1523.02	375.25
1529.14	387.786
1535.25	392.996
1541.37	416.912
1547.48	438.158
1553.6	468.134
1559.71	489.401
1565.83	525.999
1571.94	552.065
1578.06	610.552
1584.17	659.938
1590.29	669.817
1596.4	691.028
1602.52	696.209
1608.63	656.744
1614.75	611.482
1620.86	552.468
1626.98	480.117
1633.09	400.56
1639.21	352.84
1645.32	294.11
1651.44	265.116
1657.55	221.445
1663.67	194.281
1669.78	165.795
1675.9	145.733
1682.01	132.936
1688.13	116.499
1694.24	104.177
1700.36	99.7585
1706.47	95.2182
1712.59	85.7982
1718.71	86.1776
1724.82	82.2474
1730.94	80.7409
1737.05	82.0902
1743.17	73.9753
1749.28	80.867
1755.4	71.3822
1761.51	71.758
1767.63	71.0488
1773.74	70.3395
1779.86	67.4284
1785.97	67.9618
1792.09	67.3305
1798.2	72.6121
1804.32	66.6991
1810.43	64.1579
1816.55	63.753
1822.66	68.6186
1828.78	62.4027
1834.89	62.8747
1841.01	69.6413
1847.12	64.6161
1853.24	67.2714
1859.35	61.3967
1865.47	73.7567
1871.58	61.1207
1877.7	61.3673
1883.81	64.5561
1889.93	62.0042
1896.04	63.2964
1902.16	58.8445
1908.27	66.8147
1914.39	60.5317
1920.5	64.8374
1926.62	56.7835
1932.73	61.3333
1938.85	58.2589
1944.96	63.8849
1951.08	61.4022
1957.19	64.8158
1963.31	62.2388
1969.42	65.7284
1975.54	65.2824
1981.65	59.7004
1987.77	73.5191
1993.88	70.4231
2000	70.0031