File: Example Data/Raman/CNT - TIM/Raytheon/Al foil/2010/05-13-10/R3-sideA.txt
300	167.773
306.115	170.623
312.23	165.521
318.345	164.477
324.46	167.099
330.576	158.302
336.691	176.727
342.806	175.307
348.921	172.752
355.036	159.907
361.151	157.571
367.266	155.263
373.381	154.035
379.496	160.656
385.612	150.736
391.727	152.124
397.842	149
403.957	145.846
410.072	149.622
416.187	159.823
422.302	159.146
428.417	152.821
434.532	137.191
440.647	131.655
446.763	144.871
452.878	146.938
458.993	141.939
465.108	127.124
471.223	138.121
477.338	138.755
483.453	142.473
489.568	131.922
495.683	135.474
501.799	127.565
507.914	122.065
514.029	120.29
520.144	122.107
526.259	124.599
532.374	117.465
538.489	127.3
544.604	118.663
550.719	120.055
556.835	127.635
562.95	125.541
569.065	116.003
575.18	117.036
581.295	119.912
587.41	118.184
593.525	128.69
599.64	138.283
605.755	135.074
611.87	126.333
617.986	123.455
624.101	132.78
630.216	139.18
636.331	139.751
642.446	131.495
648.561	135.428
654.676	130.593
660.791	134.654
666.906	140.677
673.022	146.197
679.137	141.754
685.252	134.295
691.367	145.5
697.482	142.979
703.597	153.765
709.712	141.732
715.827	145.129
721.942	152.378
728.058	141.298
734.173	156.093
740.288	158.546
746.403	161.023
752.518	156.079
758.633	159.697
764.748	163.31
770.863	161.506
776.978	168.385
783.094	167.001
789.209	177.42
795.324	174.237
801.439	176.881
807.554	171.354
813.669	180.704
819.784	173.07
825.899	185.333
832.014	183.852
838.13	187.333
844.245	193.138
850.36	182.659
856.475	190
862.59	189.721
868.705	175.021
874.82	172.099
880.935	163.608
887.05	158.292
893.165	156.142
899.281	153.74
905.396	160.037
911.511	144.456
917.626	158.01
923.741	141.206
929.856	145.385
935.971	150.661
942.086	146.523
948.201	154.458
954.317	149.518
960.432	147.311
966.547	153.933
972.662	147.422
978.777	151.117
984.892	157.326
991.007	168.562
997.122	159.06
1003.24	161.203
1009.35	154.601
1015.47	160.266
1021.58	167.37
1027.7	183.314
1033.81	183.019
1039.93	200.309
1046.04	192.531
1052.16	188.177
1058.27	191.606
1064.39	204.548
1070.5	198.01
1076.62	207.897
1082.73	207.781
1088.85	214.376
1094.96	212.215
1101.08	230.371
1107.19	225.758
1113.31	229.801
1119.42	245.721
1125.54	236.041
1131.65	234.482
1137.77	256.582
1143.88	258.849
1150	279.198
1156.12	278.112
1162.23	282.144
1168.35	287.461
1174.46	289.933
1180.58	305.22
1186.69	307.281
1192.81	310.678
1198.92	326.62
1205.04	325.363
1211.15	326.667
1217.27	357.217
1223.38	356.981
1229.5	367.163
1235.61	386.705
1241.73	377.62
1247.84	416.647
1253.96	431.044
1260.07	449.519
1266.19	471.595
1272.3	497.384
1278.42	505.209
1284.53	548.989
1290.65	595.608
1296.76	643.078
1302.88	672.897
1308.99	728.659
1315.11	767.39
1321.22	809.648
1327.34	875.386
1333.45	887.326
1339.57	912.487
1345.68	930.996
1351.8	922.497
1357.91	871.81
1364.03	843.334
1370.14	827.226
1376.26	763.09
1382.37	728.673
1388.49	690.924
1394.6	640.842
1400.72	610.834
1406.83	580.332
1412.95	568.754
1419.06	552.04
1425.18	512.734
1431.29	542.862
1437.41	501.962
1443.53	511.43
1449.64	476.227
1455.76	498.839
1461.87	474.372
1467.99	493.517
1474.1	465.736
1480.22	456.926
1486.33	487.349
1492.45	481.543
1498.56	486.667
1504.68	477.074
1510.79	501.154
1516.91	492.939
1523.02	493.185
1529.14	522.129
1535.25	537.169
1541.37	543.917
1547.48	589.903
1553.6	631.721
1559.71	672.261
1565.83	716.183
1571.94	755.05
1578.06	814.26
1584.17	850.407
1590.29	880.678
1596.4	874.987
1602.52	857.076
1608.63	810.981
1614.75	728.888
1620.86	663.397
1626.98	578.839
1633.09	491.435
1639.21	432.352
1645.32	363.87
1651.44	315.286
1657.55	267.037
1663.67	236.789
1669.78	218.063
1675.9	182.596
1682.01	168.806
1688.13	152.726
1694.24	145.172
1700.36	139.932
1706.47	121.455
1712.59	126
1718.71	116.286
1724.82	121.018
1730.94	114.907
1737.05	108.501
1743.17	107.827
1749.28	94.3385
1755.4	107.723
1761.51	98.4009
1767.63	101.633
1773.74	95.4432
1779.86	101.717
1785.97	92.7552
1792.09	94.484
1798.2	99.8049
1804.32	96.1039
1810.43	97.1084
1816.55	94.6091
1822.66	91.8224
1828.78	86.2524
1834.89	91.4913
1841.01	88.1309
1847.12	84.0202
1853.24	81.7871
1859.35	91.7224
1865.47	86.6196
1871.58	92.8345
1877.7	94.064
1883.81	88.9508
1889.93	88.5668
1896.04	86.112
1902.16	95.0811
1908.27	86.4278
1914.39	86.3333
1920.5	83.0854
1926.62	88.5258
1932.73	92.6645
1938.85	87.9228
1944.96	87.9251
1951.08	94.4134
1957.19	89.2974
1963.31	84.2351
1969.42	87.1646
1975.54	88.1413
1981.65	87.8851
1987.77	93.7869
1993.88	92.4506
2000	91.0374