File: Example Data/Raman/CNT - TIM/Raytheon/Al foil/2010/08-10-10/Au foil_top.txt
300	73.0099
306.073	88.8595
312.147	79.4346
318.22	83.0655
324.294	79.7195
330.367	79.8017
336.44	70.389
342.514	58.3721
348.587	69.1744
354.66	69.5522
360.734	67.2992
366.807	76.2523
372.881	62.5098
378.954	49.9579
385.027	54.7876
391.101	55.3701
397.174	59.6643
403.248	54.5848
409.321	52.4183
415.394	40.0329
421.468	41.666
427.541	49.1874
433.615	44.929
439.688	37.3766
445.761	38.6148
451.835	37.5731
457.908	35.536
463.981	20.6774
470.055	12.5292
476.128	18.3578
482.202	31.6143
488.275	16.2641
494.348	11.8621
500.422	12.305
506.495	8.12925
512.569	15.2823
518.642	7.7258
524.715	4.90446
530.789	-1.34442
536.862	8.0463
542.935	11.0143
549.009	4.82002
555.082	1.78761
561.156	-0.545885
567.229	2.15371
573.302	-1.43445
579.376	5.50179
585.449	9.45768
591.523	4.26733
597.596	5.69106
603.669	-3.93958
609.743	4.96156
615.816	10.928
621.89	2.85249
627.963	7.60485
634.036	6.56973
640.11	10.1144
646.183	6.63964
652.256	3.04163
658.33	17.0481
664.403	11.357
670.477	7.85418
676.55	10.4373
682.623	10.2087
688.697	17.9907
694.77	14.031
700.844	12.185
706.917	20.8812
712.99	15.7862
719.064	26.9273
725.137	18.2381
731.21	8.21434
737.284	18.0648
743.357	24.1231
749.431	19.7723
755.504	24.8482
761.577	23.2984
767.651	24.4686
773.724	37.5112
779.798	26.8211
785.871	34.0144
791.944	35.8409
798.018	32.1717
804.091	44.7681
810.164	30.6312
816.238	39.3495
822.311	43.4766
828.385	48.6152
834.458	51.6079
840.531	52.4515
846.605	50.6224
852.678	45.9742
858.752	45.096
864.825	34.9171
870.898	35.7643
876.972	33.3224
883.045	31.3149
889.119	35.6199
895.192	19.4936
901.265	12.8487
907.339	26.7441
913.412	3.51832
919.485	-5.26781
925.559	6.20482
931.632	3.58564
937.706	7.34811
943.779	10.2861
949.852	-5.16357
955.926	-1.28414
961.999	2.64925
968.073	-6.84487
974.146	7.72051
980.219	-4.03006
986.293	-8.51185
992.366	4.48923
998.439	8.40451
1004.51	-3.68382
1010.59	6.62985
1016.66	7.84404
1022.73	2.67463
1028.81	6.76313
1034.88	4.26641
1040.95	1.85683
1047.03	8.0934
1053.1	-12.1787
1059.17	1.17226
1065.25	4.68591
1071.32	1.96481
1077.39	2.27318
1083.47	6.98809
1089.54	-2.1804
1095.61	3.00137
1101.69	-0.866979
1107.76	15.6136
1113.83	16.7092
1119.91	19.6697
1125.98	28.686
1132.05	44.5685
1138.13	62.5355
1144.2	97.8589
1150.27	102.429
1156.35	109.863
1162.42	134.329
1168.49	145.134
1174.57	143.106
1180.64	154.963
1186.71	176.081
1192.79	206.873
1198.86	179.02
1204.93	189.983
1211.01	199.728
1217.08	226.848
1223.15	250.96
1229.23	256.474
1235.3	265.434
1241.375	286.304
1247.45	298.468
1253.52	342.311
1259.6	382.477
1265.67	399.375
1271.74	459.887
1277.82	508.265
1283.89	565.665
1289.96	611.003
1296.04	699.819
1302.11	756.334
1308.18	876.655
1314.26	931.231
1320.33	976.42
1326.4	1034.95
1332.48	1040.99
1338.55	1033.69
1344.62	982.391
1350.7	958.134
1356.77	880.679
1362.84	825.425
1368.92	734.007
1374.99	657.553
1381.06	545.88
1387.14	495.788
1393.21	399.726
1399.28	362.004
1405.36	259.187
1411.43	256.039
1417.5	184.03
1423.58	145.852
1429.65	116.448
1435.72	92.3962
1441.8	68.8482
1447.87	51.7444
1453.94	18.0504
1460.02	36.9609
1466.09	1.5286
1472.16	16.6522
1478.24	17.0845
1484.31	-9.61237
1490.38	-1.20361
1496.46	-8.25256
1502.53	-0.820161
1508.6	12.3558
1514.68	73.6089
1520.75	52.6349
1526.82	108.078
1532.9	145.926
1538.97	166.898
1545.04	213.501
1551.12	278.29
1557.19	358.824
1563.26	421.391
1569.34	536.995
1575.41	667.001
1581.48	833.975
1587.56	1025.79
1593.63	1190.8
1599.7	1293.25
1605.78	1266.34
1611.85	1280.95
1617.92	923.784
1624	661.783
1630.07	463.932
1636.15	320.051
1642.22	239.032
1648.29	145.871
1654.37	118.998
1660.44	60.4253
1666.51	42.3802
1672.59	11.8671
1678.66	-10.7222
1684.73	-15.8228
1690.81	-13.3036
1696.88	-11.1049
1702.95	-8.67802
1709.03	-9.87852
1715.1	-0.88125
1721.17	-3.47408
1727.25	-8.4455
1733.32	-9.15686
1739.39	-7.60771
1745.47	-9.28761
1751.54	-10.6102
1757.61	-9.28161
1763.69	-6.86148
1769.76	-12.5259
1775.83	-11.0409
1781.91	2.57099
1787.98	-5.37213
1794.05	-12.8217
1800.13	-3.35333
1806.2	-3.18726
1812.27	-3.47916
1818.35	-8.05585
1824.42	3.87815
1830.49	-4.82678
1836.57	0.282017
1842.64	-3.90217
1848.71	-3.05257
1854.79	-3.94799
1860.86	-1.87675
1866.93	7.27497
1873.01	0.505513
1879.08	6.93541
1885.15	-5.31351
1891.23	6.46726
1897.3	-1.51474
1903.37	4.25039
1909.45	6.24851
1915.52	7.79843
1921.59	-0.0486928
1927.67	10.4037
1933.74	10.44
1939.81	11.6753
1945.89	6.77704
1951.96	5.78229
1958.03	8.7969
1964.11	7.41608
1970.18	10.8752
1976.25	14.7734
1982.33	16.4531
1988.4	21.6534
1994.47	13.7578
2000.55	14.3221
2006.62	17.6965
2012.7	17.2985
2018.77	22.2544
2024.84	23.6933
2030.92	20.0178
2036.99	23.5502
2043.06	22.3124
2049.14	32.3669
2055.21	23.1541
2061.28	29.1641
2067.36	28.1155
2073.43	31.0797
2079.5	32.4403
2085.58	27.842
2091.65	27.9448
2097.72	32.0342
2100	37.056