File: Example Data/Raman/CNT - TIM/Raytheon/Al foil/2010/08-10-10/Au foil_bottom.txt
300	79.4789
306.073	109.079
312.147	105.217
318.22	91.6396
324.294	72.3743
330.367	92.2068
336.44	84.217
342.514	76.821
348.587	93.2618
354.66	88.3298
360.734	87.157
366.807	84.986
372.881	74.8258
378.954	64.6302
385.027	60.4308
391.101	55.885
397.174	49.9014
403.248	56.0684
409.321	64.1219
415.394	62.1592
421.468	52.3789
427.541	54.6169
433.615	64.0248
439.688	44.8894
445.761	48.0603
451.835	41.4531
457.908	42.0686
463.981	25.2923
470.055	31.6166
476.128	0.618404
482.202	21.6652
488.275	25.8038
494.348	16.6439
500.422	20.3276
506.495	15.1362
512.569	16.1782
518.642	12.9489
524.715	12.3815
530.789	15.9414
536.862	18.2779
542.935	12.9614
549.009	2.77781
555.082	8.12036
561.156	22.8538
567.229	20.4833
573.302	10.8623
579.376	19.0078
585.449	28.5784
591.523	24.8412
597.596	10.414
603.669	22.9725
609.743	21.3595
615.816	38.1547
621.89	13.1458
627.963	19.6625
634.036	27.1608
640.11	19.3164
646.183	21.2664
652.256	25.7561
658.33	21.5502
664.403	24.4257
670.477	27.1071
676.55	15.7914
682.623	16.6325
688.697	10.888
694.77	13.05
700.844	19.2734
706.917	10.2789
712.99	8.13951
719.064	19.6459
725.137	24.1092
731.21	18.2046
737.284	23.0489
743.357	26.7411
749.431	31.7268
755.504	33.1415
761.577	27.0335
767.651	46.3958
773.724	29.3577
779.798	25.6548
785.871	32.5256
791.944	27.3672
798.018	39.7319
804.091	41.4546
810.164	37.8413
816.238	48.6777
822.311	45.2009
828.385	47.6014
834.458	50.1896
840.531	48.7657
846.605	55.4561
852.678	47.2824
858.752	56.5633
864.825	33.541
870.898	26.3082
876.972	33.1876
883.045	27.8021
889.119	24.6361
895.192	21.1323
901.265	19.9291
907.339	11.4065
913.412	8.85208
919.485	6.44744
925.559	14.163
931.632	-0.431425
937.706	17.7811
943.779	9.60979
949.852	13.2479
955.926	4.72221
961.999	5.25061
968.073	-0.939481
974.146	3.11065
980.219	9.01115
986.293	10.2695
992.366	23.7124
998.439	14.6161
1004.51	7.87651
1010.59	25.2711
1016.66	24.0924
1022.73	16.2485
1028.81	15.2669
1034.88	12.6432
1040.95	22.7223
1047.03	21.8019
1053.1	8.65976
1059.17	0.0648085
1065.25	1.37772
1071.32	1.60983
1077.39	2.01865
1083.47	-3.23938
1089.54	-2.45167
1095.61	2.97655
1101.69	9.90821
1107.76	12.2971
1113.83	15.348
1119.91	29.0618
1125.98	40.3404
1132.05	47.0643
1138.13	71.9867
1144.2	87.8858
1150.27	132.046
1156.35	143.692
1162.42	140.605
1168.49	150.565
1174.57	159.95
1180.64	186.108
1186.71	197.305
1192.79	205.781
1198.86	242.632
1204.93	234.75
1211.01	262.32
1217.08	258.577
1223.15	290.333
1229.23	296.191
1235.3	352.178
1241.375	353.806
1247.45	429.269
1253.52	449.842
1259.6	470.919
1265.67	534.394
1271.74	597.861
1277.82	694.623
1283.89	782.028
1289.96	872.659
1296.04	959.858
1302.11	1070.26
1308.18	1149.13
1314.26	1272.99
1320.33	1322.94
1326.4	1391.51
1332.48	1411.45
1338.55	1386.19
1344.62	1347.52
1350.7	1282.29
1356.77	1180.25
1362.84	1125.6
1368.92	979.284
1374.99	829.558
1381.06	781.754
1387.14	653.348
1393.21	556.266
1399.28	434.77
1405.36	386.348
1411.43	311.301
1417.5	245.799
1423.58	148.511
1429.65	155.32
1435.72	117.731
1441.8	100.297
1447.87	39.4809
1453.94	18.8515
1460.02	14.8334
1466.09	-5.11965
1472.16	-1.75182
1478.24	-14.0448
1484.31	11.0295
1490.38	-4.20362
1496.46	7.98572
1502.53	38.1848
1508.6	49.6788
1514.68	97.8878
1520.75	119.534
1526.82	167.624
1532.9	226.282
1538.97	272.773
1545.04	356.67
1551.12	448.104
1557.19	578.322
1563.26	681.131
1569.34	857.465
1575.41	1041.55
1581.48	1247.54
1587.56	1471.81
1593.63	1614.05
1599.7	1674.47
1605.78	1559.46
1611.85	1356.11
1617.92	1093.68
1624	793.839
1630.07	546.227
1636.15	390.495
1642.22	282.936
1648.29	210.53
1654.37	151.553
1660.44	83.6768
1666.51	54.1594
1672.59	36.0203
1678.66	12.2313
1684.73	-0.384771
1690.81	-2.53996
1696.88	12.8081
1702.95	5.82976
1709.03	8.09471
1715.1	-12.4123
1721.17	-2.24478
1727.25	-4.34579
1733.32	-1.23834
1739.39	-0.153842
1745.47	0.190362
1751.54	9.72749
1757.61	4.40058
1763.69	1.76715
1769.76	-6.03902
1775.83	-2.46183
1781.91	-2.51448
1787.98	-1.21443
1794.05	-1.91218
1800.13	2.99018
1806.2	4.83934
1812.27	5.25808
1818.35	4.33356
1824.42	-2.50856
1830.49	2.01297
1836.57	-0.189426
1842.64	-10.2295
1848.71	-0.776298
1854.79	0.219984
1860.86	-6.97918
1866.93	1.76108
1873.01	0.89278
1879.08	-7.65157
1885.15	-12.0605
1891.23	-3.41436
1897.3	6.26742
1903.37	1.38228
1909.45	-3.32369
1915.52	-8.71759
1921.59	13.0896
1927.67	-5.01363
1933.74	-1.52929
1939.81	2.0209
1945.89	-0.00131134
1951.96	-4.56924
1958.03	-2.76454
1964.11	2.67205
1970.18	-3.1036
1976.25	2.1003
1982.33	3.60435
1988.4	8.07223
1994.47	3.73343
2000.55	1.05574
2006.62	11.9901
2012.7	3.13113
2018.77	7.30931
2024.84	11.4329
2030.92	9.69096
2036.99	15.2807
2043.06	16.3253
2049.14	11.6138
2055.21	6.50591
2061.28	5.74528
2067.36	23.768
2073.43	12.3061
2079.5	11.8424
2085.58	8.2985
2091.65	7.64873
2097.72	13.2286
2100	8.78387