File: Example Data/Raman/CNT - TIM/Raytheon/Al foil/2010/03-26-10/Al10_LPCVD_550_5min -A _1.txt
300	219.667
306.533	236.539
313.067	241.964
319.6	225.088
326.134	243.961
332.667	251.116
339.201	240.732
345.734	228.689
352.267	273.101
358.801	250.027
365.334	275.871
371.868	262.128
378.401	246.192
384.935	289.488
391.468	247.755
398.002	267.412
404.535	247.696
411.068	281.549
417.602	253.937
424.135	264.295
430.669	244.771
437.202	259.8
443.736	243.527
450.269	277.684
456.802	242.894
463.336	267.082
469.869	243.378
476.403	243.146
482.936	419.847
489.47	248.358
496.003	261.972
502.536	230.726
509.07	243.785
515.603	234.498
522.137	219
528.67	231.994
535.204	233.471
541.737	233.539
548.271	258.214
554.804	247.858
561.337	244.709
567.871	238.344
574.404	233.602
580.938	257.138
587.471	265.014
594.005	267.513
600.538	249.087
607.071	243.567
613.605	263.237
620.138	261.018
626.672	237.704
633.205	262.798
639.739	228.991
646.272	277.187
652.806	274.457
659.339	254.456
665.872	268.425
672.406	237.692
678.939	260.669
685.473	251.8
692.006	257.353
698.54	237.393
705.073	271.077
711.606	271.964
718.14	275.481
724.673	266.594
731.207	272.329
737.74	263.319
744.274	267.798
750.807	280.967
757.341	265.5
763.874	262.452
770.407	261.707
776.941	280.238
783.474	290.654
790.008	304.556
796.541	281.621
803.075	297.692
809.608	284.618
816.141	278.73
822.675	291.633
829.208	275.599
835.742	276.286
842.275	275.789
848.809	294.361
855.342	284.804
861.875	276.505
868.409	274.374
874.942	275.758
881.476	264.353
888.009	304.819
894.543	290.83
901.076	278.594
907.61	292.128
914.143	282.698
920.676	289.986
927.21	283.848
933.743	252.038
940.277	296.272
946.81	278.977
953.344	272.22
959.877	275.472
966.41	270.988
972.944	311.039
979.477	295.697
986.011	284.352
992.544	288.889
999.078	286.76
1005.61	299.312
1012.14	302.196
1018.68	293.069
1025.21	322.341
1031.74	274.878
1038.28	303.074
1044.81	310.496
1051.35	309.268
1057.88	320
1064.41	320.025
1070.95	320.482
1077.48	324.162
1084.01	331.814
1090.55	317.316
1097.08	344.85
1103.61	341.6
1110.15	343.71
1116.68	334.852
1123.21	352.305
1129.75	368.027
1136.28	371.85
1142.81	372.879
1149.35	343.674
1155.88	375.789
1162.41	392.66
1168.95	393.504
1175.48	381.299
1182.01	398.032
1188.55	407.999
1195.08	383.754
1201.61	425.226
1208.15	423.57
1214.68	431.905
1221.21	440.342
1227.75	449.249
1234.28	454.449
1240.81	480.856
1247.35	474.094
1253.88	499.836
1260.42	480.205
1266.95	513.252
1273.48	524.339
1280.02	534.602
1286.55	549.094
1293.08	580.611
1299.62	614.407
1306.15	639.956
1312.68	656.573
1319.22	704.497
1325.75	676.968
1332.28	727.693
1338.82	740.399
1345.35	740.983
1351.88	756.759
1358.42	759.216
1364.95	712.234
1371.48	708.226
1378.02	670.702
1384.55	657.712
1391.08	606.972
1397.62	602.518
1404.15	583.247
1410.68	566.328
1417.22	588.482
1423.75	544.286
1430.28	548.531
1436.82	534.902
1443.35	536.063
1449.88	522.139
1456.42	546.994
1462.95	540.798
1469.48	516.548
1476.02	515.951
1482.55	520.018
1489.09	527.892
1495.62	530.854
1502.15	537.869
1508.69	514.032
1515.22	530.519
1521.75	542.346
1528.29	564.93
1534.82	545.243
1541.35	552.359
1547.89	567.553
1554.42	604.694
1560.95	617.318
1567.49	632.482
1574.02	709.166
1580.55	737.551
1587.09	783.261
1593.62	801.47
1600.15	826.18
1606.69	807.084
1613.22	801.174
1619.75	721.854
1626.29	639.529
1632.82	595.232
1639.35	545.564
1645.89	526.144
1652.42	471.006
1658.95	471.443
1665.49	413.42
1672.02	395
1678.55	376.971
1685.09	378.306
1691.62	325.284
1698.16	348.666
1704.69	336.093
1711.22	342.963
1717.76	335.423
1724.29	343.837
1730.82	339.591
1737.36	345.65
1743.89	318.116
1750.42	344.39
1756.96	321.454
1763.49	321.269
1770.02	323.228
1776.56	319.044
1783.09	328
1789.62	322.36
1796.16	311.929
1802.69	329.741
1809.22	313
1815.76	332.402
1822.29	314.012
1828.82	332.05
1835.36	345.751
1841.89	338.401
1848.42	296.559
1854.96	342.238
1861.49	341.678
1868.02	306.21
1874.56	307.529
1881.09	323.393
1887.62	349.57
1894.16	319.415
1900.69	303.599
1907.23	306.938
1913.76	324.353
1920.29	321.264
1926.83	333.342
1933.36	343.145
1939.89	347.474
1946.43	324.697
1952.96	333.37
1959.49	316.86
1966.03	312.861
1972.56	328.707
1979.09	315.697
1985.63	327.171
1992.16	326.283
1998.69	333.366
2000	299.416