File: Example Data/Raman/CNT - TIM/Raytheon/Al foil/2010/03-26-10/Al10_LPCVD_550_5min -A_2.txt
200	141.711
206.159	135.402
212.318	147.428
218.477	140.486
224.636	157.373
230.796	149.602
236.955	149.399
243.114	153.608
249.273	143.804
255.432	156.534
261.591	156.259
267.75	138.222
273.909	156.89
280.068	148.491
286.228	149.776
292.387	143.49
298.546	149.436
304.705	153.218
310.864	153.096
317.023	162.136
323.182	149.155
329.341	156.19
335.5	163.358
341.66	166.539
347.819	161.65
353.978	158.06
360.137	156.865
366.296	155.009
372.455	165.481
378.614	161.064
384.773	160.624
390.932	158.834
397.092	161.689
403.251	165.557
409.41	157.165
415.569	153.385
421.728	158.286
427.887	155.218
434.046	157.386
440.205	150.793
446.364	162.99
452.524	154.046
458.683	152.991
464.842	152.974
471.001	157.85
477.16	157.988
483.319	256.381
489.478	156.67
495.637	154.767
501.796	150.89
507.956	160.932
514.115	147.798
520.274	145.765
526.433	140.095
532.592	139.986
538.751	153.317
544.91	151.558
551.069	145.71
557.228	152.945
563.388	150.669
569.547	151
575.706	154.648
581.865	155.084
588.024	160.77
594.183	160.766
600.342	156.398
606.501	160.151
612.66	149.931
618.82	159.221
624.979	151.119
631.138	153.765
637.297	148.333
643.456	156.76
649.615	159.34
655.774	155.571
661.933	154.026
668.092	161.085
674.252	151.361
680.411	163.918
686.57	162.044
692.729	158.775
698.888	159.739
705.047	168.299
711.206	158.376
717.365	160.338
723.524	164.308
729.683	168.658
735.843	159.02
742.002	163.046
748.161	168.695
754.32	167.578
760.479	174.655
766.638	155.608
772.797	169.784
778.956	167.616
785.115	172.302
791.275	172.208
797.434	166.102
803.593	178.409
809.752	176.414
815.911	176.801
822.07	180.293
828.229	173.371
834.388	184.67
840.547	179.393
846.707	187.554
852.866	180.953
859.025	179.794
865.184	172.492
871.343	168.817
877.502	171.102
883.661	177.708
889.82	169.221
895.979	172.656
902.139	158.622
908.298	167.469
914.457	151.118
920.616	161.582
926.775	157.007
932.934	162.628
939.093	167.866
945.252	163.419
951.411	161.32
957.571	170.126
963.73	160.715
969.889	164.061
976.048	167.04
982.207	166.851
988.366	168.381
994.525	174.614
1000.68	172.703
1006.84	172.432
1013	192.241
1019.16	166.56
1025.32	176.722
1031.48	175.574
1037.64	191.063
1043.8	182.236
1049.96	184.011
1056.12	183.365
1062.28	181.925
1068.43	189.511
1074.59	183.116
1080.75	200.551
1086.91	203.014
1093.07	194.814
1099.23	191.288
1105.39	200.913
1111.55	209.709
1117.71	205.862
1123.87	204.138
1130.03	208.811
1136.18	223.883
1142.34	223.188
1148.5	225.395
1154.66	230.588
1160.82	237.248
1166.98	240.6
1173.14	229.439
1179.3	241.326
1185.46	247.929
1191.62	246.505
1197.78	247.508
1203.93	250.755
1210.09	266.337
1216.25	263.185
1222.41	267.469
1228.57	287.64
1234.73	284.702
1240.89	288.869
1247.05	299.416
1253.21	306.882
1259.37	292.833
1265.53	318.853
1271.69	319.695
1277.84	333.87
1284	357.437
1290.16	374.054
1296.32	375.732
1302.48	388.352
1308.64	393.185
1314.8	437.128
1320.96	434.305
1327.12	455.691
1333.28	475.014
1339.44	493.568
1345.59	490.404
1351.75	459.53
1357.91	456.877
1364.07	447.02
1370.23	422.075
1376.39	419.545
1382.55	409.804
1388.71	401.314
1394.87	392.514
1401.03	352.364
1407.19	335.895
1413.34	340.944
1419.5	345.699
1425.66	315.457
1431.82	317.452
1437.98	324.61
1444.14	328.519
1450.3	312.843
1456.46	323.642
1462.62	317.078
1468.78	329.568
1474.94	315.822
1481.09	324.902
1487.25	312.688
1493.41	305.719
1499.57	320.499
1505.73	310.576
1511.89	313.706
1518.05	311.921
1524.21	330.956
1530.37	323.508
1536.53	345.231
1542.69	333.653
1548.85	347.408
1555	380.041
1561.16	381.751
1567.32	399.494
1573.48	424.71
1579.64	445.261
1585.8	460.041
1591.96	498.2
1598.12	500.813
1604.28	492.979
1610.44	472.795
1616.6	438.839
1622.75	400.622
1628.91	354.318
1635.07	325.237
1641.23	292.676
1647.39	272.248
1653.55	254.327
1659.71	239.71
1665.87	221.314
1672.03	202.844
1678.19	198.794
1684.35	184.948
1690.5	176.146
1696.66	177.008
1702.82	184.003
1708.98	183.753
1715.14	165.908
1721.3	169.006
1727.46	169.744
1733.62	166.809
1739.78	159.778
1745.94	164.108
1752.1	167.925
1758.25	168.906
1764.41	161.258
1770.57	158.269
1776.73	160.958
1782.89	169.6
1789.05	163.218
1795.21	169.804
1801.37	164.333
1807.53	164.812
1813.69	172.249
1819.85	169.137
1826.01	166.667
1832.16	162.908
1838.32	162.967
1844.48	157.313
1850.64	161.414
1856.8	152.465
1862.96	163.562
1869.12	166.021
1875.28	168.063
1881.44	154.353
1887.6	156.333
1893.76	166.053
1899.91	167.178
1906.07	175.291
1912.23	154.658
1918.39	158.214
1924.55	157.77
1930.71	159.431
1936.87	158.746
1943.03	164.076
1949.19	158.733
1955.35	157.35
1961.51	156.302
1967.66	156.549
1973.82	155.978
1979.98	154.329
1986.14	160.967
1992.3	157.75
1998.46	159.764
2000	167.222