File: Example Data/Raman/CNT - TIM/Raytheon/Al foil/2010/03-26-10/Al10_LPCVD_550_5min -B_2.txt
200	238.973
206.159	253.088
212.318	264.493
218.477	257.776
224.636	263.907
230.796	256.141
236.955	259.12
243.114	252.794
249.273	264.49
255.432	250.494
261.591	261.853
267.75	249.983
273.909	243.7
280.068	251.707
286.228	244.353
292.387	235.585
298.546	233.011
304.705	235.923
310.864	229.073
317.023	225.25
323.182	234.92
329.341	230.868
335.5	221.92
341.66	229.8
347.819	222.963
353.978	216.879
360.137	221.229
366.296	199.017
372.455	202.816
378.614	204.077
384.773	201.614
390.932	195.318
397.092	197.62
403.251	207.258
409.41	193.923
415.569	190.362
421.728	194.321
427.887	198.215
434.046	193.552
440.205	185.588
446.364	180.364
452.524	183.264
458.683	185.646
464.842	179.246
471.001	178.926
477.16	182.182
483.319	169.126
489.478	173.67
495.637	165.876
501.796	169.907
507.956	171.232
514.115	168.982
520.274	158.827
526.433	162.991
532.592	162.251
538.751	166.613
544.91	161.608
551.069	170.865
557.228	171.209
563.388	165.911
569.547	172.033
575.706	178.396
581.865	176.4
588.024	165.185
594.183	179.206
600.342	169.066
606.501	169.761
612.66	172.774
618.82	176.426
624.979	178.226
631.138	172.488
637.297	175.679
643.456	185.561
649.615	182.274
655.774	185.832
661.933	184.871
668.092	191.656
674.252	182.803
680.411	188.352
686.57	199.833
692.729	194.74
698.888	194.028
705.047	198.66
711.206	204.85
717.365	189.962
723.524	205.034
729.683	210.446
735.843	221.639
742.002	224.358
748.161	228.363
754.32	222.206
760.479	221.533
766.638	231.012
772.797	223.134
778.956	234.673
785.115	234.188
791.275	241.904
797.434	254.598
803.593	251.597
809.752	244.104
815.911	249.096
822.07	246.951
828.229	246.66
834.388	256.267
840.547	252.769
846.707	264.877
852.866	259.781
859.025	260.098
865.184	248.288
871.343	240.726
877.502	230.05
883.661	229.061
889.82	221.708
895.979	215.253
902.139	202.314
908.298	210.968
914.457	199.651
920.616	192.124
926.775	194.597
932.934	191.685
939.093	187.281
945.252	190.928
951.411	191.913
957.571	206.213
963.73	196.753
969.889	194.632
976.048	186.611
982.207	191.901
988.366	200.17
994.525	201.931
1000.68	204.696
1006.84	207.193
1013	213.06
1019.16	217.146
1025.32	224.128
1031.48	225.698
1037.64	222.463
1043.8	228.027
1049.96	244.364
1056.12	243.09
1062.28	244.201
1068.43	253.072
1074.59	249.257
1080.75	238.947
1086.91	258.306
1093.07	258.889
1099.23	264.353
1105.39	257.276
1111.55	261.097
1117.71	282.406
1123.87	281.325
1130.03	285.151
1136.18	294.704
1142.34	302.492
1148.5	314.843
1154.66	313.085
1160.82	330.06
1166.98	330.325
1173.14	325.439
1179.3	328.665
1185.46	353.346
1191.62	364.819
1197.78	354.658
1203.93	375.295
1210.09	372.422
1216.25	389.784
1222.41	406.057
1228.57	417.375
1234.73	425.481
1240.89	453.99
1247.05	468.878
1253.21	486.64
1259.37	514.873
1265.53	513.957
1271.69	552.476
1277.84	574.741
1284	614.161
1290.16	656.715
1296.32	696.344
1302.48	749.745
1308.64	797.102
1314.8	823.312
1320.96	896.57
1327.12	940.549
1333.28	974.924
1339.44	993.261
1345.59	1007.02
1351.75	960.323
1357.91	921.184
1364.07	882.444
1370.23	842.755
1376.39	792.454
1382.55	757.295
1388.71	715.844
1394.87	699.844
1401.03	650.683
1407.19	635.108
1413.34	612.034
1419.5	580.493
1425.66	564.895
1431.82	549.728
1437.98	556.565
1444.14	523.219
1450.3	537.864
1456.46	533.065
1462.62	521.031
1468.78	523.224
1474.94	520.161
1481.09	533.367
1487.25	524.01
1493.41	521.14
1499.57	525.786
1505.73	521.107
1511.89	527.199
1518.05	557.73
1524.21	552.077
1530.37	573.245
1536.53	590.684
1542.69	624.757
1548.85	653.524
1555	705.978
1561.16	754.917
1567.32	803.594
1573.48	863.037
1579.64	910.393
1585.8	936.067
1591.96	934.972
1598.12	929.445
1604.28	900.343
1610.44	835.967
1616.6	740.506
1622.75	650.217
1628.91	564.979
1635.07	482.529
1641.23	413.994
1647.39	378.851
1653.55	321.366
1659.71	277.169
1665.87	255.342
1672.03	220.782
1678.19	199.735
1684.35	182.87
1690.5	181.591
1696.66	158.95
1702.82	144.969
1708.98	141.951
1715.14	151.076
1721.3	140.894
1727.46	127.135
1733.62	130.555
1739.78	136.639
1745.94	126.124
1752.1	125.763
1758.25	123.962
1764.41	122.523
1770.57	117.14
1776.73	118.54
1782.89	120.065
1789.05	115.061
1795.21	123.249
1801.37	110.92
1807.53	116.989
1813.69	117.696
1819.85	120.004
1826.01	114.738
1832.16	114.077
1838.32	112.408
1844.48	116.25
1850.64	99.5474
1856.8	120.751
1862.96	111.337
1869.12	118.752
1875.28	118.749
1881.44	115.359
1887.6	100.5
1893.76	103.921
1899.91	106.583
1906.07	110.536
1912.23	103.776
1918.39	107.849
1924.55	97.9098
1930.71	104.263
1936.87	108.303
1943.03	111.963
1949.19	107.709
1955.35	111.382
1961.51	109.245
1967.66	117.148
1973.82	117.044
1979.98	108.729
1986.14	102.714
1992.3	102.712
1998.46	104.917
2000	112.528