File: Example Data/Raman/CNT - TIM/Raytheon/Al foil/2010/03-26-10/Al10_LPCVD_600_10min -A_1.txt
200	328.704
206.159	363.207
212.318	368.523
218.477	379.698
224.636	354.969
230.796	356.818
236.955	347.915
243.114	333.211
249.273	340.7
255.432	348.778
261.591	345.157
267.75	338.383
273.909	342.071
280.068	335.892
286.228	344.876
292.387	339.419
298.546	309.039
304.705	323.948
310.864	313.574
317.023	322.85
323.182	307.471
329.341	317.925
335.5	303.276
341.66	303.343
347.819	295.962
353.978	288.545
360.137	297.161
366.296	273.752
372.455	275.154
378.614	276.663
384.773	278.851
390.932	271.104
397.092	282.715
403.251	275.684
409.41	271.102
415.569	260.132
421.728	265.284
427.887	264.499
434.046	281.931
440.205	258.985
446.364	256.54
452.524	249.006
458.683	253.271
464.842	243.784
471.001	233.831
477.16	246.535
483.319	232.856
489.478	236.635
495.637	229.393
501.796	237.654
507.956	222.558
514.115	228.664
520.274	225.353
526.433	221.013
532.592	229.991
538.751	233.917
544.91	233.484
551.069	239.919
557.228	226.599
563.388	234.99
569.547	243.828
575.706	230.053
581.865	248.633
588.024	224.108
594.183	233.737
600.342	243.804
606.501	228.28
612.66	246.156
618.82	235.421
624.979	242.952
631.138	244.771
637.297	244.553
643.456	250.422
649.615	250.731
655.774	259.726
661.933	258.415
668.092	255.648
674.252	254.006
680.411	253.247
686.57	260.384
692.729	259.194
698.888	257.177
705.047	252.972
711.206	258.846
717.365	267.62
723.524	264.298
729.683	280.009
735.843	281.967
742.002	281.089
748.161	283.507
754.32	281.561
760.479	279.938
766.638	299.138
772.797	295.711
778.956	293.346
785.115	293.531
791.275	305.823
797.434	307.535
803.593	304.901
809.752	313.578
815.911	315.49
822.07	321.166
828.229	311.985
834.388	323.301
840.547	334.556
846.707	325.912
852.866	332.82
859.025	321.056
865.184	324.251
871.343	299.3
877.502	302.022
883.661	295.355
889.82	280.032
895.979	288.243
902.139	271.033
908.298	269.708
914.457	263.758
920.616	272.174
926.775	267.789
932.934	264.921
939.093	246.56
945.252	261.226
951.411	261.991
957.571	268.152
963.73	266.348
969.889	256.605
976.048	261.181
982.207	266.58
988.366	266.359
994.525	276.649
1000.68	284.434
1006.84	287.75
1013	292.766
1019.16	305.878
1025.32	308.665
1031.48	323.13
1037.64	326.137
1043.8	335.4
1049.96	329.696
1056.12	335.247
1062.28	346.63
1068.43	338.167
1074.59	333.957
1080.75	342.788
1086.91	350.584
1093.07	356.64
1099.23	369.277
1105.39	376.681
1111.55	370.421
1117.71	397.837
1123.87	402.066
1130.03	413.797
1136.18	418.838
1142.34	438.382
1148.5	460.746
1154.66	457.035
1160.82	465.259
1166.98	477.258
1173.14	492.137
1179.3	493.069
1185.46	492.32
1191.62	514.843
1197.78	518.305
1203.93	546.621
1210.09	541.175
1216.25	577.291
1222.41	576.461
1228.57	609.756
1234.73	634.496
1240.89	666.087
1247.05	667.06
1253.21	716.646
1259.37	726.833
1265.53	762.567
1271.69	792.825
1277.84	904.428
1284	919.319
1290.16	985.294
1296.32	1028.73
1302.48	1108.12
1308.64	1203.16
1314.8	1280.88
1320.96	1362.71
1327.12	1430.68
1333.28	1481.96
1339.44	1531.79
1345.59	1525.55
1351.75	1433.61
1357.91	1402.99
1364.07	1333.58
1370.23	1263.66
1376.39	1187.02
1382.55	1098.93
1388.71	1061.52
1394.87	1011.44
1401.03	961.93
1407.19	908.621
1413.34	889.606
1419.5	843.603
1425.66	823.387
1431.82	807.529
1437.98	779.291
1444.14	795.877
1450.3	770.863
1456.46	755.356
1462.62	752.697
1468.78	767.642
1474.94	750.197
1481.09	767.952
1487.25	755.933
1493.41	743.951
1499.57	769.462
1505.73	783.953
1511.89	757.738
1518.05	784.414
1524.21	803.983
1530.37	832.972
1536.53	864.284
1542.69	902.492
1548.85	969.259
1555	1041.85
1561.16	1112.16
1567.32	1203.23
1573.48	1276.54
1579.64	1347.87
1585.8	1380.12
1591.96	1406.65
1598.12	1382.96
1604.28	1287.43
1610.44	1205.68
1616.6	1072.09
1622.75	915.554
1628.91	781.187
1635.07	664.102
1641.23	580.699
1647.39	504.744
1653.55	443.551
1659.71	393.479
1665.87	347.886
1672.03	314.413
1678.19	294.314
1684.35	263.172
1690.5	253.394
1696.66	238.284
1702.82	225.688
1708.98	219.395
1715.14	211.285
1721.3	195.754
1727.46	201.873
1733.62	187.414
1739.78	184.945
1745.94	177.355
1752.1	188.577
1758.25	175.637
1764.41	181.691
1770.57	176.878
1776.73	180.549
1782.89	181.799
1789.05	180.545
1795.21	170.462
1801.37	168.899
1807.53	164.098
1813.69	161.566
1819.85	149.09
1826.01	163.769
1832.16	164.508
1838.32	160.322
1844.48	169.931
1850.64	165.561
1856.8	164.5
1862.96	160.706
1869.12	162.828
1875.28	159.656
1881.44	151.024
1887.6	160.626
1893.76	153.473
1899.91	159.031
1906.07	159.552
1912.23	154.537
1918.39	152.661
1924.55	151.591
1930.71	152.331
1936.87	160.231
1943.03	149.971
1949.19	157.638
1955.35	156.473
1961.51	153.744
1967.66	154.813
1973.82	150.493
1979.98	150.759
1986.14	161.772
1992.3	158.258
1998.46	165.927
2000	152.532