File: Example Data/Raman/CNT - TIM/Raytheon/Al foil/2010/03-26-10/Al10_LPCVD_550_5min -A_3.txt
200	154.588
206.159	133.476
212.318	148.462
218.477	145.798
224.636	137.882
230.796	143.847
236.955	148.981
243.114	147.529
249.273	151.408
255.432	144.647
261.591	146.096
267.75	147.628
273.909	147.515
280.068	155.135
286.228	154.894
292.387	151.608
298.546	142.989
304.705	157.437
310.864	154.565
317.023	158.901
323.182	161.844
329.341	151.296
335.5	144.366
341.66	161.069
347.819	166.2
353.978	163.127
360.137	169.01
366.296	158.003
372.455	164.01
378.614	162.404
384.773	161.057
390.932	169.198
397.092	155.617
403.251	166.753
409.41	169.241
415.569	153.454
421.728	163.892
427.887	157.466
434.046	161.364
440.205	159.375
446.364	150.032
452.524	163.59
458.683	166.313
464.842	160.647
471.001	159.707
477.16	153.094
483.319	260.952
489.478	144.541
495.637	153.322
501.796	150.298
507.956	154.49
514.115	145.841
520.274	149.059
526.433	148.73
532.592	143.76
538.751	144.275
544.91	143.82
551.069	145.93
557.228	146.117
563.388	154.12
569.547	155.039
575.706	153.252
581.865	145.307
588.024	153.121
594.183	156.255
600.342	150.97
606.501	157.69
612.66	151.2
618.82	158.689
624.979	154.024
631.138	148.831
637.297	167.186
643.456	160.894
649.615	156.262
655.774	163.882
661.933	153.52
668.092	149.62
674.252	163.648
680.411	159.028
686.57	162.899
692.729	161.835
698.888	162.83
705.047	151.218
711.206	157.523
717.365	166.406
723.524	162.172
729.683	156.738
735.843	167.422
742.002	163.073
748.161	170.113
754.32	167.988
760.479	160.981
766.638	164.756
772.797	167.651
778.956	167.063
785.115	167.765
791.275	173.912
797.434	172.62
803.593	170.253
809.752	174.492
815.911	173.682
822.07	172.339
828.229	180.502
834.388	179.315
840.547	174.645
846.707	178.949
852.866	187.637
859.025	184.303
865.184	180.433
871.343	171.099
877.502	174.146
883.661	177.432
889.82	172.201
895.979	170.749
902.139	165.173
908.298	162.786
914.457	175.169
920.616	161.566
926.775	176.55
932.934	162.343
939.093	158.606
945.252	164.033
951.411	171.581
957.571	162.069
963.73	150.398
969.889	150.777
976.048	167.138
982.207	171.27
988.366	164.722
994.525	173.681
1000.68	172.595
1006.84	172.099
1013	170.013
1019.16	176.191
1025.32	180.702
1031.48	186.543
1037.64	182.597
1043.8	179.423
1049.96	181.792
1056.12	188.758
1062.28	190.224
1068.43	186.456
1074.59	189.262
1080.75	190.122
1086.91	201.282
1093.07	193.888
1099.23	198.189
1105.39	197.604
1111.55	194.768
1117.71	213.95
1123.87	195.236
1130.03	211.882
1136.18	213.866
1142.34	220.147
1148.5	224.358
1154.66	232.459
1160.82	228.977
1166.98	249.718
1173.14	233.323
1179.3	247.238
1185.46	246.348
1191.62	244.147
1197.78	244.942
1203.93	255.902
1210.09	251.788
1216.25	264.098
1222.41	262.201
1228.57	267.905
1234.73	281.629
1240.89	281.01
1247.05	293.608
1253.21	298.188
1259.37	308.669
1265.53	323.465
1271.69	317.43
1277.84	340.407
1284	358.773
1290.16	361.313
1296.32	390.652
1302.48	398.698
1308.64	411.926
1314.8	452.35
1320.96	440.138
1327.12	468.981
1333.28	471.06
1339.44	496.028
1345.59	500.962
1351.75	472.976
1357.91	458.456
1364.07	455.672
1370.23	447.958
1376.39	432.864
1382.55	412.219
1388.71	394.156
1394.87	375.97
1401.03	358.165
1407.19	352.196
1413.34	335.961
1419.5	339.226
1425.66	342.696
1431.82	331.22
1437.98	327.15
1444.14	327.148
1450.3	315.42
1456.46	311.679
1462.62	323.946
1468.78	333.275
1474.94	309.63
1481.09	309.515
1487.25	316.952
1493.41	323.695
1499.57	322.65
1505.73	314.22
1511.89	308.107
1518.05	327.468
1524.21	330.244
1530.37	327.201
1536.53	328.72
1542.69	340.545
1548.85	357.516
1555	370.655
1561.16	376.174
1567.32	411.008
1573.48	423.43
1579.64	458.26
1585.8	476.962
1591.96	494.242
1598.12	519.407
1604.28	509.789
1610.44	485.432
1616.6	456.092
1622.75	408.993
1628.91	367.346
1635.07	325.201
1641.23	297.693
1647.39	267.774
1653.55	246.116
1659.71	231.713
1665.87	216.891
1672.03	211.602
1678.19	211.5
1684.35	196.313
1690.5	182.706
1696.66	181.939
1702.82	185.292
1708.98	175.604
1715.14	171.09
1721.3	172.995
1727.46	172.915
1733.62	161.807
1739.78	164.111
1745.94	174.525
1752.1	163.313
1758.25	164.746
1764.41	172.535
1770.57	163.062
1776.73	170.271
1782.89	173.362
1789.05	160.331
1795.21	164.135
1801.37	162.878
1807.53	165.282
1813.69	159.545
1819.85	153.842
1826.01	170.432
1832.16	161.549
1838.32	170.853
1844.48	159.958
1850.64	174.587
1856.8	161.799
1862.96	161.572
1869.12	161.447
1875.28	163.296
1881.44	161.021
1887.6	160.5
1893.76	167.451
1899.91	180.916
1906.07	171.12
1912.23	161.245
1918.39	165.562
1924.55	167.385
1930.71	154.21
1936.87	161.435
1943.03	152.796
1949.19	164.892
1955.35	158.085
1961.51	148.314
1967.66	161.95
1973.82	161.513
1979.98	168.887
1986.14	169.077
1992.3	155.109
1998.46	155.489
2000	157.17