File: Example Data/Raman/Kara/12-20-10/Si-Graphene/8bulk/SGbulk_2.txt
100	61.3971
112.793	83.306
125.586	98.712
138.38	120.593
151.173	109.093
163.966	108.162
176.759	90.7965
189.552	95.2582
202.345	67.1788
215.139	53.0278
227.932	50.0739
240.725	54.7948
253.518	51.2465
266.311	66.6049
279.104	72.943
291.898	80.2362
304.691	86.1558
317.484	82.3215
330.277	76.6757
343.07	80.3017
355.864	82.5837
368.657	77.2694
381.45	78.8343
394.243	74.0631
407.036	67.6181
419.829	78.5001
432.623	102.805
445.416	120.749
458.209	140.705
471.002	161.125
483.795	162.407
496.589	128.092
509.382	93.2394
522.175	61.3115
534.968	33.686
547.761	25.742
560.554	22.081
573.348	22.6317
586.141	17.0874
598.934	19.058
611.727	19.1737
624.52	20.28
637.313	18.6462
650.107	17.6765
662.9	12.2212
675.693	15.4696
688.486	12.0175
701.279	14.6887
714.073	12.4082
726.866	15.3717
739.659	15.0716
752.452	14.6677
765.245	19.9197
778.038	14.647
790.832	14.7728
803.625	14.4601
816.418	18.0254
829.211	18.2215
842.004	23.3869
854.797	22.9137
867.591	25.171
880.384	20.5607
893.177	24.0367
905.97	17.2052
918.763	16.6259
931.557	13.2267
944.35	15.2
957.143	7.7136
969.936	9.17256
982.729	10.4
995.522	4.14535
1008.32	5.74092
1021.11	5.54011
1033.9	4.37672
1046.7	-2.75288
1059.49	1.64383
1072.28	-3.77585
1085.07	-2.64149
1097.87	-6.31303
1110.66	-5.35242
1123.45	-6.61425
1136.25	-7.41351
1149.04	-9.15048
1161.83	-8.56509
1174.63	-7.87538
1187.42	-9.72729
1200.21	-6.40491
1213.01	-9.02241
1225.8	-6.47823
1238.59	-7.07548
1251.39	-9.36544
1264.18	-9.5667
1276.97	-10.3261
1289.77	-10.5039
1302.56	-5.90205
1315.35	-6.21156
1328.15	-5.8086
1340.94	-6.2
1353.73	-1.1669
1366.52	-9.1047
1379.32	-7.51218
1392.11	-8.20502
1404.9	-7.97392
1417.7	-8.23418
1430.49	-10.6803
1443.28	-6.80915
1456.08	-11.1576
1468.87	-9.37179
1481.66	-9.76118
1494.46	-11.9926
1507.25	-10.0466
1520.04	-10.2578
1532.84	-9.74226
1545.63	-8.27677
1558.42	-5.09976
1571.22	-11.5367
1584.01	-4.59895
1596.8	-9.15245
1609.59	-6.6789
1622.39	-11.7696
1635.18	-10.6043
1647.97	-11.3433
1660.77	-10.0261
1673.56	-10.37
1686.35	-12.4366
1699.15	-9.69213
1711.94	-10.8308
1724.73	-10.8132
1737.53	-9.48305
1750.32	-12.173
1763.11	-8.7688
1775.91	-11.7372
1788.7	-10.4968
1801.49	-13.9791
1814.29	-10.6
1827.08	-13.925
1839.87	-10.9831
1852.67	-11.8241
1865.46	-13.3648
1878.25	-12.4555
1891.04	-13.6517
1903.84	-13.2003
1916.63	-12.4662
1929.42	-11.9627
1942.22	-13.0894
1955.01	-10.5332
1967.8	-14.8596
1980.6	-12.6044
1993.39	-10.9615
2006.18	-12.4604
2018.98	-13.2361
2031.77	-10.0594
2044.56	-11.0185
2057.36	-9.22648
2070.15	-15.7335
2082.94	-12.1039
2095.74	-9.74798
2108.53	-11.6544
2121.32	-12.8587
2134.12	-10.4448
2146.91	-9.65743
2159.7	-12.1807
2172.49	-11.4801
2185.29	-11.8698
2198.08	-10.8532
2210.87	-10.7482
2223.67	-8.97236
2236.46	-9.53889
2249.25	-9.81223
2262.05	-10.5119
2274.84	-8.61705
2287.63	-7.65675
2300.43	-9.17866
2313.22	-7.88895
2326.01	-8.6628
2338.81	0.52797
2351.6	-7.18179
2364.39	-5.87165
2377.19	-7.82906
2389.98	-7.61132
2402.77	-3.53592
2415.56	-4.63942
2428.36	-2.38042
2441.15	7.44953
2453.94	0.131791
2466.74	-3.91025
2479.53	-2.29037
2492.32	-5.47537
2505.12	-5.92768
2517.91	-4.68422
2530.7	-3.74633
2543.5	-2.34312
2556.29	-5.39515
2569.08	-2.46631
2581.88	-5.11826
2594.67	-3.71196
2607.46	-2.01196
2620.26	-3.96118
2633.05	-0.346771
2645.84	-2.73228
2658.64	-1.60573
2671.43	-2.93307
2684.22	-0.0974585
2697.01	-2.69097
2709.81	-2.64593
2722.6	-1.86993
2735.39	-2.52192
2748.19	-1.46303
2760.98	-2.50145
2773.77	-2.06137
2786.57	-1.79909
2799.36	-1.77439
2812.15	-1.8876
2824.95	-3.65024
2837.74	-5.19962
2850.53	2.69706
2863.33	0.347676
2876.12	-1.76713
2888.91	-4.20585
2901.71	-0.499016
2914.5	-0.41382
2927.29	-0.504669
2940.09	0.367097
2952.88	-0.083087
2965.67	0.737174
2978.46	-0.567065
2991.26	-4.52945
3004.05	1.66476
3016.84	-1.09516
3029.64	0.2704
3042.43	-2.8028
3055.22	-1.87855
3068.02	-1.34173
3080.81	-0.274852
3093.6	-1.2582
3106.4	-2.70811
3119.19	-1.57292
3131.98	2.20249
3144.78	2.15705
3157.57	-0.352444
3170.36	-1.32942
3183.16	2.60551
3195.95	1.92969
3208.74	3.41594
3221.54	0.407746
3234.33	0.619872
3247.12	1.01999
3259.91	-2.71018
3272.71	2.39633
3285.5	-3.76104
3298.29	-0.781066
3311.09	0.288805
3323.88	5.98502
3336.67	-0.130143
3349.47	-2.72615
3362.26	0.26681
3375.05	1.76358
3387.85	4.62442
3400.64	6.52872
3413.43	2.19982
3426.23	3.9708
3439.02	1.57486
3451.81	1.27279
3464.61	1.15417
3477.4	2.98901
3490.19	5.95716
3502.99	1.82074
3515.78	4.62722
3528.57	2.66476
3541.36	4.21566
3554.16	2.07696
3566.95	3.54837
3579.74	2.98545
3592.54	2.29728
3605.33	3.22359
3618.12	-1.27432
3630.92	3.90796
3643.71	2.33238
3656.5	10.4554
3669.3	3.8115
3682.09	5.71425
3694.88	6.5604
3700	6.28541