File: Example Data/Raman/Kara/12-20-10/Si-Graphene/8bulk/SGbulk_1.txt
200	55.4959
212.718	43.1023
225.436	48.657
238.154	53.7383
250.872	62.7021
263.59	74.627
276.308	70.8921
289.026	88.0632
301.744	83.037
314.462	89.8628
327.18	81.5488
339.898	83.7563
352.616	85.0358
365.334	77.1442
378.052	85.7623
390.77	83.1491
403.488	82.2192
416.206	74.9336
428.924	90.447
441.642	113.115
454.36	140.458
467.078	153.126
479.797	161.822
492.515	152.068
505.233	104.39
517.951	67.07
530.669	41.8185
543.387	25.6604
556.105	25.4006
568.823	23.1724
581.541	21.5695
594.259	19.976
606.977	25.1839
619.695	24.6097
632.413	19.2184
645.131	22.1452
657.849	19.776
670.567	12.8438
683.285	16.7402
696.003	13.9473
708.721	15.5837
721.439	12.5352
734.157	19.899
746.875	18.8811
759.593	17.3086
772.311	12.1694
785.029	19.1355
797.747	21.738
810.465	26.1056
823.183	23.0272
835.901	25.1625
848.619	21.6715
861.337	25.9364
874.055	24.2091
886.773	18.9127
899.491	24.5552
912.209	19.3028
924.927	17.4373
937.645	21.8848
950.363	13.8
963.081	9.62097
975.799	11.192
988.517	7.49842
1001.24	8.58071
1013.95	7.2
1026.67	3.50035
1039.39	5.09878
1052.11	3.5327
1064.83	4.34103
1077.54	-0.847408
1090.26	-4.4658
1102.98	-1.53614
1115.7	-5.87327
1128.42	-2.2205
1141.13	-5.53242
1153.85	-4.78702
1166.57	-5.84188
1179.29	-5.28626
1192.01	-3.19997
1204.72	-6.78842
1217.44	-1.63821
1230.16	-6.81157
1242.88	-2.80045
1255.6	-3.55013
1268.31	-6.17582
1281.03	-3.13712
1293.75	-6.97845
1306.47	0.162448
1319.19	-1.75191
1331.9	-1.55386
1344.62	0.2
1357.34	-4.7689
1370.06	-2.20275
1382.78	-3.29135
1395.49	-6.37593
1408.21	-5.20449
1420.93	-5.35365
1433.65	-6.24272
1446.37	-7.87623
1459.08	-7.48316
1471.8	-5.91009
1484.52	-6.66809
1497.24	-6.80539
1509.96	-9.01342
1522.67	-5.11863
1535.39	-8.18523
1548.11	-5.20828
1560.83	-3.84303
1573.55	-6.75005
1586.26	-5.88682
1598.98	-5.51618
1611.7	-3.82817
1624.42	-5.0792
1637.14	-4.83716
1649.85	-11.3298
1662.57	-10.1308
1675.29	-9.16843
1688.01	-9.40696
1700.73	-7.53534
1713.44	-8.1138
1726.16	-8.83652
1738.88	-6.43322
1751.6	-8.03057
1764.32	-11.0085
1777.03	-7.39774
1789.75	-8.13649
1802.47	-7.61386
1815.19	-9.0301
1827.91	-9.68402
1840.625	-8.1031
1853.34	-7.8784
1866.06	-8.67763
1878.78	-11.7842
1891.5	-9.70556
1904.22	-10.4973
1916.93	-7.57988
1929.65	-7.66802
1942.37	-9.40829
1955.09	-13.4696
1967.81	-6.9817
1980.52	-9.10631
1993.24	-6.59714
2005.96	-9.29801
2018.68	-8.15257
2031.4	-7.75971
2044.11	-8.77891
2056.83	-8.87139
2069.55	-10.4261
2082.27	-9.60124
2094.99	-6.47876
2107.7	-11.2098
2120.42	-8.37262
2133.14	-7.21754
2145.86	-7.43799
2158.58	-9.2671
2171.29	-8.23729
2184.01	-8.22738
2196.73	-7.92198
2209.45	-8.63542
2222.17	-8.41994
2234.88	-8.97379
2247.6	-5.52844
2260.32	-8.50212
2273.04	-8.57265
2285.76	-7.91098
2298.47	-5.83992
2311.19	-7.25416
2323.91	-5.88721
2336.63	1.87808
2349.35	-6.61867
2362.06	-6.66484
2374.78	-3.88599
2387.5	-3.45492
2400.22	-6.20834
2412.94	-5.06675
2425.65	-1.21068
2438.37	5.64165
2451.09	1.95342
2463.81	-0.523461
2476.53	-3.21432
2489.24	-4.45946
2501.96	-1.69793
2514.68	-1.15414
2527.4	-1.07173
2540.12	-1.36016
2552.83	-2.37588
2565.55	-2.69847
2578.27	-0.879244
2590.99	-2.76244
2603.71	-1.95802
2616.42	-2.77556
2629.14	-1.10159
2641.86	-2.50731
2654.58	-2.92664
2667.3	1.4258
2680.01	-2.83341
2692.73	0.971408
2705.45	1.59592
2718.17	-1.08618
2730.89	0.42144
2743.6	-1.0853
2756.32	-0.99882
2769.04	-0.341367
2781.76	1.08716
2794.48	0.248259
2807.19	0.489937
2819.91	4.29805
2832.63	1.99043
2845.35	1.05369
2858.07	2.12593
2870.78	1.63474
2883.5	1.41558
2896.22	4.58942
2908.94	4.28921
2921.66	-1.17859
2934.375	3.72609
2947.09	1.61546
2959.81	-1.04875
2972.53	0.397801
2985.25	2.71946
2997.97	-2.34207
3010.68	-0.134663
3023.4	0.473174
3036.12	0.721489
3048.84	2.62583
3061.56	1.79333
3074.27	5.03906
3086.99	0.456676
3099.71	1.92518
3112.43	-0.288491
3125.15	-0.0411682
3137.86	0.751966
3150.58	-0.0185237
3163.3	3.8755
3176.02	4.30092
3188.74	0.708814
3201.45	5.36872
3214.17	1.55421
3226.89	5.2601
3239.61	2.30465
3252.33	1.44416
3265.04	2.54482
3277.76	3.07823
3290.48	4.84115
3303.2	3.61958
3315.92	-0.886667
3328.63	3.68391
3341.35	5.00022
3354.07	1.33379
3366.79	5.92515
3379.51	3.3359
3392.22	1.76049
3404.94	7.75604
3417.66	1.40921
3430.38	2.57359
3443.1	1.75323
3455.81	10.9449
3468.53	5.42459
3481.25	6.33531
3493.97	3.05994
3506.69	2.46615
3519.4	0.388614
3532.12	4.10046
3544.84	9.71786
3557.56	5.82738
3570.28	3.44993
3582.99	6.35498
3595.71	7.48496
3608.43	4.50285
3621.15	6.51936
3633.87	6.4039
3646.58	6.00704
3659.3	8.89315
3672.02	4.92697
3684.74	6.74571
3697.46	3.72462
3700	6.80221