File: Example Data/Raman/Kara/12-20-10/Si-Graphene/8bulk/SGbulk_4.txt
100	226.877
112.793	287.725
125.586	355.549
138.38	385.762
151.173	365.367
163.966	359.766
176.759	336.668
189.552	307.204
202.345	249.904
215.139	185.862
227.932	180.482
240.725	210.834
253.518	223.647
266.311	244.792
279.104	256.302
291.898	276.103
304.691	288.543
317.484	284.069
330.277	285.512
343.07	287.602
355.864	277.517
368.657	286.703
381.45	280.237
394.243	276.744
407.036	268.202
419.829	280.632
432.623	322.718
445.416	402.76
458.209	467.141
471.002	528.875
483.795	508.183
496.589	436.018
509.382	335.699
522.175	216.223
534.968	148.626
547.761	118.751
560.554	106.865
573.348	100.2
586.141	103.286
598.934	100.34
611.727	101.469
624.52	88.44
637.313	92.4955
650.107	90.8496
662.9	95.9233
675.693	83.0633
688.486	90.4351
701.279	84.8019
714.073	81.4125
726.866	85.4554
739.659	89.409
752.452	88.6102
765.245	97.3918
778.038	91.4157
790.832	101.904
803.625	102.21
816.418	105.75
829.211	106.646
842.004	113.337
854.797	107.914
867.591	109.797
880.384	107.815
893.177	103.326
905.97	108.761
918.763	96.2623
931.557	98.3418
944.35	91.2988
957.143	90.3542
969.936	78.3863
982.729	75.8955
995.522	60.6897
1008.32	61.3432
1021.11	55.4969
1033.9	49.8116
1046.7	50.5036
1059.49	49.3141
1072.28	41.2136
1085.07	32.1679
1097.87	31.4991
1110.66	31.6126
1123.45	24.4347
1136.25	28.2721
1149.04	21.5743
1161.83	21.7227
1174.63	21.7227
1187.42	21.4363
1200.21	18.7499
1213.01	17.6348
1225.8	20.5935
1238.59	28.6603
1251.39	17.1168
1264.18	23.7887
1276.97	21.5087
1289.77	21.1756
1302.56	24.4735
1315.35	28.0021
1328.15	24.086
1340.94	34.5921
1353.73	31.1949
1366.52	35.4268
1379.32	25.8406
1392.11	28.737
1404.9	20.65
1417.7	21.8259
1430.49	16.1521
1443.28	20.9414
1456.08	18.8001
1468.87	21.1996
1481.66	16.395
1494.46	18.1546
1507.25	15.6855
1520.04	17.8138
1532.84	19.0324
1545.63	10.569
1558.42	21.922
1571.22	20.835
1584.01	20.2984
1596.8	20.9902
1609.59	25.9646
1622.39	20.3302
1635.18	11.6717
1647.97	9.25848
1660.77	11.9246
1673.56	6.69179
1686.35	8.07255
1699.15	7.25173
1711.94	7.77441
1724.73	14.6069
1737.53	9.90384
1750.32	6.5514
1763.11	10.2826
1775.91	8.60726
1788.7	7.92709
1801.49	8.48142
1814.29	10.7028
1827.08	6.14869
1839.87	9.79323
1852.67	8.01908
1865.46	7.47791
1878.25	7.85783
1891.04	5.19544
1903.84	7.95268
1916.63	5.47975
1929.42	3.68668
1942.22	8.04426
1955.01	3.28189
1967.8	7.02193
1980.6	7.62685
1993.39	8.10668
2006.18	7.77097
2018.98	9.25707
2031.77	8.81669
2044.56	7.82286
2057.36	11.1594
2070.15	7.50151
2082.94	5.92046
2095.74	14.1784
2108.53	12.1716
2121.32	9.42628
2134.12	14.5761
2146.91	12.1229
2159.7	11.3442
2172.49	9.43901
2185.29	7.70261
2198.08	9.71217
2210.87	10.1574
2223.67	11.1001
2236.46	8.54561
2249.25	8.94932
2262.05	10.5434
2274.84	9.65229
2287.63	12.0284
2300.43	11.7688
2313.22	11.5428
2326.01	11.0156
2338.81	33.0509
2351.6	10.5176
2364.39	15.8431
2377.19	17.9981
2389.98	17.8283
2402.77	16.1344
2415.56	21.7392
2428.36	35.0542
2441.15	54.0155
2453.94	37.0312
2466.74	26.624
2479.53	23.0715
2492.32	23.6281
2505.12	22.8514
2517.91	25.2833
2530.7	27.6596
2543.5	20.8109
2556.29	24.6553
2569.08	25.0132
2581.88	20.8857
2594.67	23.3371
2607.46	21.5103
2620.26	24.802
2633.05	23.1917
2645.84	21.9326
2658.64	26.3843
2671.43	26.0865
2684.22	26.5683
2697.01	28.2772
2709.81	24.4603
2722.6	28.2152
2735.39	26.5662
2748.19	26.0798
2760.98	29.4849
2773.77	26.5322
2786.57	24.2187
2799.36	26.2726
2812.15	27.0005
2824.95	24.8055
2837.74	26.7304
2850.53	28.8112
2863.33	24.7455
2876.12	25.5262
2888.91	25.7155
2901.71	26.4769
2914.5	30.0728
2927.29	26.8633
2940.09	28.5725
2952.88	32.3499
2965.67	30.4516
2978.46	31.953
2991.26	29.8378
3004.05	25.0326
3016.84	27.3361
3029.64	28.8867
3042.43	27.4499
3055.22	26.4302
3068.02	27.6799
3080.81	29.631
3093.6	31.0867
3106.4	32.3493
3119.19	29.7944
3131.98	29.4039
3144.78	30.7416
3157.57	31.124
3170.36	33.6417
3183.16	32.5641
3195.95	31.7911
3208.74	33.2363
3221.54	32.1786
3234.33	33.9345
3247.12	31.8504
3259.91	36.0708
3272.71	30.2169
3285.5	36.8257
3298.29	33.5579
3311.09	38.0512
3323.88	35.3219
3336.67	33.7161
3349.47	36.2145
3362.26	38.6585
3375.05	36.3152
3387.85	39.3513
3400.64	41.5133
3413.43	37.4705
3426.23	42.4302
3439.02	41.5792
3451.81	42.0713
3464.61	41.5878
3477.4	39.3323
3490.19	45.9742
3502.99	43.9043
3515.78	39.2622
3528.57	46.6962
3541.36	44.3899
3554.16	39.8146
3566.95	46.5415
3579.74	35.6086
3592.54	42.6181
3605.33	47.321
3618.12	45.9902
3630.92	46.1378
3643.71	45.2416
3656.5	46.2768
3669.3	39.5131
3682.09	45.2605
3694.88	46.4444
3700	45.8251