File: Example Data/Raman/Kara/12-20-10/Si-Graphene/8bulk/SGbulk_3.txt
100	139.789
112.793	181.756
125.586	225.025
138.38	258.184
151.173	245.629
163.966	234.005
176.759	225.365
189.552	195.005
202.345	167.586
215.139	115.897
227.932	121.518
240.725	133.436
253.518	147.734
266.311	161.578
279.104	167.979
291.898	174.564
304.691	185.608
317.484	182.776
330.277	184.044
343.07	174.299
355.864	180.158
368.657	169.395
381.45	192.392
394.243	174.352
407.036	166.081
419.829	178.569
432.623	209.569
445.416	252.394
458.209	312.51
471.002	348.734
483.795	346.756
496.589	298.279
509.382	206.295
522.175	134.849
534.968	93.1254
547.761	64.2538
560.554	67.6645
573.348	60.2891
586.141	58.3076
598.934	70.2321
611.727	58.7869
624.52	60.28
637.313	54.4877
650.107	56.81
662.9	49.1418
675.693	52.3702
688.486	45.8771
701.279	49.0698
714.073	50.4022
726.866	50.3429
739.659	53.8626
752.452	57.2803
765.245	60.0508
778.038	56.5666
790.832	57.1365
803.625	61.8368
816.418	58.2234
829.211	61.7542
842.004	63.4681
854.797	68.0796
867.591	65.5782
880.384	65.9469
893.177	62.9265
905.97	65.0265
918.763	58.6026
931.557	53.2715
944.35	55.1637
957.143	45.2043
969.936	44.7576
982.729	43.659
995.522	33.6164
1008.32	33.2262
1021.11	30.2647
1033.9	26.6029
1046.7	20.7278
1059.49	22.9744
1072.28	15.0528
1085.07	14
1097.87	12.5357
1110.66	13.6257
1123.45	9.47038
1136.25	6.94137
1149.04	5.7101
1161.83	6.90444
1174.63	4.85364
1187.42	3.74548
1200.21	8.55167
1213.01	5.6236
1225.8	7.48052
1238.59	5.45392
1251.39	7.68317
1264.18	6.10739
1276.97	5.47608
1289.77	7.88031
1302.56	9.29795
1315.35	14.2137
1328.15	13.2373
1340.94	13.9883
1353.73	13.2975
1366.52	14.0295
1379.32	14.8015
1392.11	12.4405
1404.9	4.74239
1417.7	6.13579
1430.49	4.4718
1443.28	0.0672768
1456.08	6.34542
1468.87	5.89979
1481.66	5.0298
1494.46	4.65644
1507.25	3.43435
1520.04	-4.02028
1532.84	4.45495
1545.63	3.77252
1558.42	6.07845
1571.22	7.64833
1584.01	9.50685
1596.8	8.03448
1609.59	4.30339
1622.39	4.63941
1635.18	1.06309
1647.97	-3.52046
1660.77	3.12658
1673.56	-3.32271
1686.35	-2.87321
1699.15	-2.95959
1711.94	-3.40517
1724.73	0.709751
1737.53	0.538805
1750.32	-1.0486
1763.11	0.121113
1775.91	1.07374
1788.7	1.67928
1801.49	-2.96047
1814.29	-0.866166
1827.08	-5.704
1839.87	-5.71199
1852.67	-7.01741
1865.46	-2.56628
1878.25	-1.71098
1891.04	-3.06068
1903.84	-3.48233
1916.63	-0.73124
1929.42	-0.879937
1942.22	-0.0730685
1955.01	2.4993
1967.8	0.299837
1980.6	-3.28037
1993.39	0.362356
2006.18	0.477916
2018.98	-2.82835
2031.77	1.02683
2044.56	-0.671971
2057.36	-1.06699
2070.15	-4.74502
2082.94	-2.13035
2095.74	-0.6428
2108.53	-3.32911
2121.32	2.01119
2134.12	-3.44645
2146.91	-1.46907
2159.7	1.42821
2172.49	-0.962425
2185.29	-2.49006
2198.08	0.205217
2210.87	-0.746076
2223.67	-0.489701
2236.46	-1.42114
2249.25	0.53015
2262.05	2.29744
2274.84	0.833835
2287.63	1.35294
2300.43	1.57133
2313.22	4.60192
2326.01	5.25904
2338.81	19.8605
2351.6	3.94062
2364.39	4.38055
2377.19	0.0259944
2389.98	4.41275
2402.77	8.415
2415.56	8.70735
2428.36	15.2698
2441.15	29.794
2453.94	19.1188
2466.74	11.1838
2479.53	9.31032
2492.32	10.2169
2505.12	7.3274
2517.91	9.24674
2530.7	13.4314
2543.5	10.9216
2556.29	10.1055
2569.08	11.1305
2581.88	8.90593
2594.67	7.70766
2607.46	10.9275
2620.26	11.3851
2633.05	10.9799
2645.84	9.06503
2658.64	10.7647
2671.43	10.628
2684.22	12.7597
2697.01	7.36584
2709.81	11.3681
2722.6	12.3755
2735.39	15.0084
2748.19	14.0852
2760.98	11.7513
2773.77	12.0062
2786.57	12.9116
2799.36	16.4699
2812.15	12.543
2824.95	17.191
2837.74	11.9624
2850.53	14.2895
2863.33	11.1802
2876.12	12.5574
2888.91	12.759
2901.71	12.7368
2914.5	16.4161
2927.29	15.9769
2940.09	16.1242
2952.88	11.7822
2965.67	14.3355
2978.46	16.6711
2991.26	15.9893
3004.05	16.6854
3016.84	16.6611
3029.64	15.747
3042.43	10.8569
3055.22	12.7216
3068.02	15.3247
3080.81	14.6044
3093.6	16.7181
3106.4	16.7824
3119.19	14.234
3131.98	13.1401
3144.78	11.4023
3157.57	17.7827
3170.36	14.2428
3183.16	20.2752
3195.95	18.5197
3208.74	14.5512
3221.54	18.7798
3234.33	16.5225
3247.12	19.5544
3259.91	16.735
3272.71	18.8453
3285.5	19.2917
3298.29	19.8855
3311.09	18.8701
3323.88	16.1571
3336.67	20.1862
3349.47	16.282
3362.26	19.9439
3375.05	19.4897
3387.85	19.2291
3400.64	18.1899
3413.43	20.2958
3426.23	20.388
3439.02	20.1535
3451.81	18.3853
3464.61	21.631
3477.4	19.7316
3490.19	21.0967
3502.99	19.0463
3515.78	21.2146
3528.57	21.0043
3541.36	22.9402
3554.16	22.1624
3566.95	23.7855
3579.74	24.7756
3592.54	20.1789
3605.33	23.4747
3618.12	22.0696
3630.92	26.6757
3643.71	25.2344
3656.5	27.5114
3669.3	20.0436
3682.09	28.5299
3694.88	27.8146
3700	28.61