File: Example Data/Silver Reactive Inks/XRD/silver 70C.csv
[Measurement conditions]
Sample identification,
Comment - 1,"Configuration=Powder Diffraction, Owner=User-1, Creation date=6/3/2009 8:49:36 AM"
Comment - 2,"Goniometer=PW3050/65 (Theta/2Theta); Minimum step size 2Theta:0.0001; Minimum step size Omega:0.0001"
Comment - 3,"Sample stage=MRD Cradle; Minimum step size Phi:0.01; Minimum step size Chi:0.01; Minimum step size X:0.01; Minimum step size Y:0.01; Minimum step size Z:0.001"
Comment - 4,"Diffractometer system=XPERT-PRO"
Comment - 5,"Measurement program=C:\PANalytical\Data Collector\Programs\powder_scan_49.xrdmp, Identifier={12387B94-FF5E-46B4-B2C7-B6F75F9A12C1}"
Anode material,Cu
K-Alpha1 wavelength,1.5406
K-Alpha2 wavelength,1.54443
Ratio K-Alpha2/K-Alpha1,0.500
Divergence slit,Fixed,0.38mm
Monochromator used,NO
Generator voltage, 45
Tube current, 40
File date and time,08/Apr/2015 14:42
Unit cell,
h k l, 0 0 0
Scan axis,Gonio
Scan range,20,80.0102
Scan step size,0.0376004
No. of points, 1596
Scan type,CONTINUOUS
Phi,0.00
Psi,0.00
X,0.00
Y,0.00
Z,6.887
Time per step,63.500
[Scan points]
Angle,Intensity
20.0188,281.0
20.2444,281.0
20.47,279.0
20.6956,301.0
20.9212,296.0
21.1468,324.0
21.3724,292.0
21.598,295.0
21.8236,313.0
22.0492,273.0
22.2748,292.0
22.5004,249.0
22.726,264.0
22.9516,282.0
23.1772,266.0
23.4028,278.0
23.6284,243.0
23.854,262.0
24.0796,268.0
24.3052,263.0
24.5308,261.0
24.7564,280.0
24.982,241.0
25.2076,235.0
25.4333,249.0
25.6589,287.0
25.8845,242.0
26.1101,214.0
26.3357,251.0
26.5613,232.0
26.7869,238.0
27.0125,210.0
27.2381,221.0
27.4637,239.0
27.6893,251.0
27.9149,202.0
28.1405,244.0
28.3661,213.0
28.5917,192.0
28.8173,227.0
29.0429,210.0
29.2685,219.0
29.4941,204.0
29.7197,192.0
29.9453,197.0
30.1709,167.0
30.3965,183.0
30.6221,193.0
30.8477,199.0
31.0733,189.0
31.2989,165.0
31.5245,172.0
31.7501,174.0
31.9757,174.0
32.2013,180.0
32.4269,180.0
32.6525,160.0
32.8781,527.0
33.1037,238.0
33.3293,173.0
33.5549,185.0
33.7805,158.0
34.0061,163.0
34.2317,153.0
34.4573,130.0
34.6829,183.0
34.9085,165.0
35.1341,166.0
35.3597,144.0
35.5853,148.0
35.8109,143.0
36.0366,156.0
36.2622,147.0
36.4878,146.0
36.7134,132.0
36.939,165.0
37.1646,151.0
37.3902,152.0
37.6158,201.0
37.8414,335.0
38.067,2028.0
38.2926,620.0
38.5182,250.0
38.7438,179.0
38.9694,172.0
39.195,164.0
39.4206,150.0
39.6462,144.0
39.8718,128.0
40.0974,171.0
40.323,150.0
40.5486,161.0
40.7742,138.0
40.9998,139.0
41.2254,135.0
41.451,125.0
41.6766,132.0
41.9022,136.0
42.1278,156.0
42.3534,145.0
42.579,127.0
42.8046,137.0
43.0302,159.0
43.2558,149.0
43.4814,164.0
43.707,149.0
43.9326,249.0
44.1582,488.0
44.3838,733.0
44.6094,272.0
44.835,176.0
45.0606,126.0
45.2862,137.0
45.5118,154.0
45.7374,119.0
45.963,123.0
46.1886,139.0
46.4142,130.0
46.6399,125.0
46.8655,136.0
47.0911,133.0
47.3167,123.0
47.5423,91.0
47.7679,114.0
47.9935,114.0
48.2191,94.0
48.4447,117.0
48.6703,107.0
48.8959,104.0
49.1215,104.0
49.3471,127.0
49.5727,125.0
49.7983,104.0
50.0239,97.0
50.2495,94.0
50.4751,107.0
50.7007,105.0
50.9263,110.0
51.1519,92.0
51.3775,95.0
51.6031,87.0
51.8287,78.0
52.0543,106.0
52.2799,76.0
52.5055,88.0
52.7311,69.0
52.9567,95.0
53.1823,92.0
53.4079,74.0
53.6335,91.0
53.8591,80.0
54.0847,96.0
54.3103,79.0
54.5359,108.0
54.7615,81.0
54.9871,86.0
55.2127,70.0
55.4383,78.0
55.6639,92.0
55.8895,92.0
56.1151,91.0
56.3407,95.0
56.5663,80.0
56.7919,87.0
57.0175,82.0
57.2432,75.0
57.4688,84.0
57.6944,75.0
57.92,95.0
58.1456,67.0
58.3712,81.0
58.5968,67.0
58.8224,62.0
59.048,66.0
59.2736,86.0
59.4992,57.0
59.7248,65.0
59.9504,69.0
60.176,73.0
60.4016,65.0
60.6272,60.0
60.8528,67.0
61.0784,88.0
61.304,80.0
61.5296,111.0
61.7552,114.0
61.9808,85.0
62.2064,63.0
62.432,63.0
62.6576,69.0
62.8832,80.0
63.1088,80.0
63.3344,82.0
63.56,73.0
63.7856,81.0
64.0112,131.0
64.2368,206.0
64.4624,572.0
64.688,254.0
64.9136,134.0
65.1392,95.0
65.3648,71.0
65.5904,63.0
65.816,95.0
66.0416,70.0
66.2672,89.0
66.4928,376.0
66.7184,385.0
66.944,378.0
67.1696,397.0
67.3952,404.0
67.6208,410.0
67.8465,475.0
68.0721,499.0
68.2977,649.0
68.5233,911.0
68.7489,3420.0
68.9745,10014.0
69.2001,20107.0
69.4257,6035.0
69.6513,1606.0
69.8769,862.0
70.1025,688.0
70.3281,540.0
70.5537,446.0
70.7793,426.0
71.0049,366.0
71.2305,333.0
71.4561,339.0
71.6817,288.0
71.9073,300.0
72.1329,267.0
72.3585,236.0
72.5841,253.0
72.8097,232.0
73.0353,232.0
73.2609,234.0
73.4865,213.0
73.7121,224.0
73.9377,212.0
74.1633,208.0
74.3889,197.0
74.6145,164.0
74.8401,203.0
75.0657,187.0
75.2913,198.0
75.5169,184.0
75.7425,148.0
75.9681,143.0
76.1937,179.0
76.4193,174.0
76.6449,199.0
76.8705,187.0
77.0961,261.0
77.3217,559.0
77.5473,446.0
77.7729,237.0
77.9985,193.0
78.2241,154.0
78.4498,147.0
78.6754,130.0
78.901,126.0
79.1266,143.0
79.3522,123.0
79.5778,131.0
79.8034,125.0
79.9914,106.0