File: Example Data/Raman/CNT - TIM/Raytheon/Cu foil/08-12-10/Cu batch 2 bottom copy.txt
300	65.0113
300.759	66.9259
301.518	71.2135
302.278	70.8018
303.037	71.5695
303.796	74.5281
304.555	74.5122
305.314	67.7619
306.073	68.5948
306.833	66.3941
307.592	74.0983
308.351	77.4373