File: Example Data/Raman/CNT - TIM/Raytheon/Cu foil/08-12-10/Cu batch 2 bottom.txt
300	65.0113
306.073	68.5948
312.147	72.5477
318.22	75.7914
324.294	56.907
330.367	61.6011
336.44	62.5619
342.514	44.3863
348.587	55.3852
354.66	48.8408
360.734	45.6981
366.807	51.8729
372.881	48.1829
378.954	43.4949
385.027	42.8346
391.101	50.8676
397.174	43.319
403.248	39.8175
409.321	32.0332
415.394	35.2845
421.468	39.4937
427.541	38.3752
433.615	30.3035
439.688	33.4322
445.761	30.2356
451.835	22.9831
457.908	20.65
463.981	10.2848
470.055	20.147
476.128	22.8468
482.202	22.3037
488.275	5.64073
494.348	5.81021
500.422	2.48148
506.495	-2.6641
512.569	7.01915
518.642	4.75737
524.715	2.04497
530.789	-5.01975
536.862	-6.8402
542.935	-11.3771
549.009	1.38627
555.082	-6.27684
561.156	2.94804
567.229	-1.18483
573.302	0.91367
579.376	-4.8509
585.449	2.47217
591.523	-2.54581
597.596	4.93459
603.669	-1.0831
609.743	3.12237
615.816	4.81921
621.89	0.539462
627.963	2.6617
634.036	0.373761
640.11	11.7335
646.183	-0.0978061
652.256	0.0488431
658.33	-2.48397
664.403	7.34904
670.477	8.36981
676.55	13.8156
682.623	3.07727
688.697	4.0297
694.77	6.51586
700.844	9.28749
706.917	-0.175423
712.99	11.8829
719.064	7.5367
725.137	12.3382
731.21	9.44074
737.284	12.8622
743.357	23.069
749.431	18.293
755.504	23.9733
761.577	26.9785
767.651	33.1323
773.724	31.0527
779.798	21.703
785.871	30.267
791.944	30.4741
798.018	33.6699
804.091	34.1964
810.164	29.1441
816.238	43.6615
822.311	33.8614
828.385	28.988
834.458	44.4755
840.531	39.6941
846.605	39.7285
852.678	52.3834
858.752	36.523
864.825	40.2801
870.898	31.7725
876.972	23.8159
883.045	18.0337
889.119	26.3975
895.192	15.1159
901.265	13.9327
907.339	18.9016
913.412	0.172586
919.485	5.33596
925.559	3.02335
931.632	0.543958
937.706	-0.435861
943.779	-7.06442
949.852	-11.4514
955.926	-8.15933
961.999	-10.8271
968.073	-16.4714
974.146	-19.452
980.219	-23.8944
986.293	-20.1986
992.366	-10.4253
998.439	-20.8885
1004.51	-22.8966
1010.59	-27.5428
1016.66	-21.7766
1022.73	-9.24343
1028.81	-21.1578
1034.88	-16.5879
1040.95	-18.0101
1047.03	-6.7984
1053.1	-16.5956
1059.17	-11.4485
1065.25	-16.9196
1071.32	-26.8895
1077.39	-6.27652
1083.47	-13.1635
1089.54	-11.8923
1095.61	-19.9789
1101.69	-6.04503
1107.76	-6.85562
1113.83	-11.5511
1119.91	-12.2495
1125.98	-14.2715
1132.05	-8.91687
1138.13	-17.7714
1144.2	-18.0755
1150.27	-2.57996
1156.35	-10.6749
1162.42	-8.80216
1168.49	-2.29252
1174.57	-4.10289
1180.64	2.78696
1186.71	1.8791
1192.79	8.36587
1198.86	4.41305
1204.93	8.1073
1211.01	1.23013
1217.08	13.0321
1223.15	26.4702
1229.23	27.8344
1235.3	44.568
1241.375	47.816
1247.45	75.0312
1253.52	98.2882
1259.6	93.4817
1265.67	128.434
1271.74	149.377
1277.82	188.676
1283.89	201.172
1289.96	258.133
1296.04	312.996
1302.11	380.294
1308.18	428.311
1314.26	501.085
1320.33	611.986
1326.4	697.744
1332.48	768.56
1338.55	815.353
1344.62	805.287
1350.7	748.639
1356.77	672.039
1362.84	573.062
1368.92	485.062
1374.99	415.985
1381.06	325.375
1387.14	245.941
1393.21	222.061
1399.28	171.477
1405.36	131.085
1411.43	109.289
1417.5	71.7957
1423.58	67.925
1429.65	47.0284
1435.72	47.1739
1441.8	12.2707
1447.87	5.93333
1453.94	1.64533
1460.02	-12.4232
1466.09	12.4394
1472.16	18.5518
1478.24	10.9107
1484.31	22.3692
1490.38	39.4968
1496.46	51.6736
1502.53	85.6739
1508.6	78.4389
1514.68	115.255
1520.75	153.006
1526.82	168.892
1532.9	232.091
1538.97	270.476
1545.04	374.17
1551.12	481.411
1557.19	599.786
1563.26	694.141
1569.34	814.011
1575.41	888.653
1581.48	894.964
1587.56	902.217
1593.63	869.316
1599.7	808.492
1605.78	751.205
1611.85	666.214
1617.92	555.732
1624	440.126
1630.07	348.586
1636.15	245.178
1642.22	185.588
1648.29	121.974
1654.37	88.2943
1660.44	67.2334
1666.51	38.3382
1672.59	20.8795
1678.66	8.78148
1684.73	5.91051
1690.81	2.19004
1696.88	2.85168
1702.95	-3.50673
1709.03	-0.0350593
1715.1	1.14013
1721.17	3.38548
1727.25	1.73866
1733.32	7.05814
1739.39	7.54307
1745.47	7.42319
1751.54	6.26981
1757.61	-3.45269
1763.69	2.93271
1769.76	4.09057
1775.83	-1.00471
1781.91	-11.201
1787.98	2.27142
1794.05	-3.81723
1800.13	-12.6701
1806.2	-1.04738
1812.27	-4.77352
1818.35	-18.4071
1824.42	-12.1067
1830.49	-3.11717
1836.57	-11.5156
1842.64	-3.80155
1848.71	-10.0812
1854.79	-2.71938
1860.86	-7.49036
1866.93	-7.84877
1873.01	-6.50832
1879.08	-14.5508
1885.15	-8.39826
1891.23	-7.88175
1897.3	-11.002
1903.37	-10.094
1909.45	-4.37243
1915.52	-17.2285
1921.59	-13.2833
1927.67	-6.41197
1933.74	-16.0273
1939.81	-6.76032
1945.89	-9.81086
1951.96	-5.95411
1958.03	-5.02759
1964.11	-11.532
1970.18	-3.81288
1976.25	-9.47204
1982.33	-7.63811
1988.4	2.26465
1994.47	-8.98768
2000.55	0.429321
2006.62	-1.71392
2012.7	-0.616174
2018.77	-4.04714
2024.84	3.29851
2030.92	0.0879935
2036.99	-0.368752
2043.06	1.0002
2049.14	10.1394
2055.21	1.33847
2061.28	8.62346
2067.36	4.78832
2073.43	13.5835
2079.5	8.12909
2085.58	6.68242
2091.65	4.90694
2097.72	7.6727
2100	12.1178