File: Example Data/Raman/CNT - TIM/Raytheon/Cu foil/08-12-10/Cu batch 2 top copy.txt
300	58.2119
300.759	73.9834
301.518	60.7736
302.278	61.0978
303.037	61.0352
303.796	60.2358
304.555	62.0875
305.314	62.7765
306.073	69.026
306.833	62.2685
307.592	67.9652
308.351	60.5817
309.11	61.0136
309.869	67.3897