File: Example Data/Raman/CNT - TIM/Raytheon/Cu foil/08-12-10/Cu batch 2 top.txt
300	58.2119
306.073	69.026
312.147	73.0039
318.22	54.4704
324.294	62.6557
330.367	61.8113
336.44	50.7762
342.514	53.6548
348.587	56.0748
354.66	62.1831
360.734	50.5309
366.807	49.5328
372.881	55.0914
378.954	48.8957
385.027	40.2461
391.101	44.198
397.174	44.2367
403.248	41.2519
409.321	39.6815
415.394	37.3048
421.468	40.1669
427.541	37.7838
433.615	33.5293
439.688	31.5592
445.761	31.3096
451.835	21.3003
457.908	34.8633
463.981	32.9101
470.055	24.8124
476.128	25.4795
482.202	27.4607
488.275	23.1863
494.348	16.4783
500.422	8.21169
506.495	12.2651
512.569	1.53683
518.642	0.512034
524.715	-0.381853
530.789	12.0654
536.862	7.97764
542.935	6.75519
549.009	6.97978
555.082	10.4608
561.156	3.32336
567.229	9.06475
573.302	7.49763
579.376	5.38836
585.449	10.3731
591.523	1.69007
597.596	12.2013
603.669	5.77699
609.743	5.18222
615.816	13.4234
621.89	9.90245
627.963	6.83996
634.036	3.50729
640.11	7.97758
646.183	13.7815
652.256	9.30008
658.33	13.6356
664.403	18.1073
670.477	6.35552
676.55	16.2925
682.623	23.2169
688.697	12.1156
694.77	14.1431
700.844	5.5945
706.917	18.6931
712.99	15.1414
719.064	22.392
725.137	23.7562
731.21	26.1955
737.284	30.185
743.357	31.1462
749.431	29.8723
755.504	27.8852
761.577	20.9667
767.651	36.392
773.724	26.9047
779.798	31.4256
785.871	37.0355
791.944	35.646
798.018	44.2627
804.091	44.8493
810.164	39.7017
816.238	51.5462
822.311	41.525
828.385	39.8652
834.458	51.9499
840.531	41.0736
846.605	42.637
852.678	50.4332
858.752	40.6759
864.825	46.0664
870.898	38.4483
876.972	32.6108
883.045	32.2421
889.119	20.3551
895.192	11.5383
901.265	12.4842
907.339	11.3439
913.412	4.397
919.485	1.41233
925.559	5.40252
931.632	-2.46933
937.706	1.3874
943.779	-3.13954
949.852	-1.48664
955.926	-0.239562
961.999	1.00579
968.073	-9.09922
974.146	2.25728
980.219	-9.4242
986.293	-2.10004
992.366	-0.116781
998.439	-9.198
1004.51	1.78956
1010.59	1.90858
1016.66	-1.22033
1022.73	3.85506
1028.81	-2.68002
1034.88	-5.98232
1040.95	-1.29452
1047.03	-5.67176
1053.1	4.67303
1059.17	-1.81043
1065.25	-2.05548
1071.32	-10.6217
1077.39	-1.40828
1083.47	-6.21788
1089.54	-2.11377
1095.61	-3.2088
1101.69	3.71104
1107.76	0.734199
1113.83	4.84658
1119.91	6.81907
1125.98	8.34555
1132.05	11.4467
1138.13	4.80179
1144.2	4.29598
1150.27	22.0604
1156.35	31.4334
1162.42	-2.34977
1168.49	19.7218
1174.57	9.06583
1180.64	9.68606
1186.71	22.703
1192.79	5.40369
1198.86	27.2084
1204.93	21.336
1211.01	32.959
1217.08	29.8527
1223.15	34.9673
1229.23	59.1411
1235.3	64.3971
1241.375	50.3178
1247.45	71.4836
1253.52	70.4517
1259.6	117.465
1265.67	106.287
1271.74	130.037
1277.82	159.803
1283.89	187.585
1289.96	223.565
1296.04	253.457
1302.11	295.048
1308.18	358.385
1314.26	417.721
1320.33	479.221
1326.4	534.226
1332.48	610.011
1338.55	667.76
1344.62	706.698
1350.7	680.4
1356.77	647.526
1362.84	581.605
1368.92	519.697
1374.99	418.753
1381.06	359.422
1387.14	304.171
1393.21	249.983
1399.28	197.129
1405.36	171.809
1411.43	130.193
1417.5	101.884
1423.58	74.2376
1429.65	58.5822
1435.72	49.1471
1441.8	18.4321
1447.87	33.7242
1453.94	12.1383
1460.02	18.9613
1466.09	13.9628
1472.16	-2.15196
1478.24	22.078
1484.31	20.0585
1490.38	28.2081
1496.46	51.0045
1502.53	67.8499
1508.6	59.5014
1514.68	81.3879
1520.75	108.693
1526.82	111.711
1532.9	156.98
1538.97	175.281
1545.04	247.098
1551.12	292.933
1557.19	354.441
1563.26	435.619
1569.34	515.629
1575.41	596.263
1581.48	685.026
1587.56	732.216
1593.63	752.067
1599.7	730.402
1605.78	707.803
1611.85	672.563
1617.92	617.95
1624	496.748
1630.07	399.048
1636.15	308.662
1642.22	230.866
1648.29	176.494
1654.37	120.908
1660.44	71.3413
1666.51	52.5294
1672.59	34.1502
1678.66	21.2169
1684.73	10.5406
1690.81	-0.767595
1696.88	3.73534
1702.95	2.18843
1709.03	-1.22438
1715.1	2.52834
1721.17	1.46702
1727.25	6.0693
1733.32	10.6716
1739.39	12.4431
1745.47	5.8188
1751.54	9.97802
1757.61	10.2376
1763.69	6.61306
1769.76	11.084
1775.83	9.43526
1781.91	8.31921
1787.98	5.85371
1794.05	11.099
1800.13	9.94022
1806.2	9.22191
1812.27	8.02098
1818.35	13.9726
1824.42	6.92224
1830.49	10.9526
1836.57	5.44781
1842.64	3.96275
1848.71	8.14956
1854.79	10.3058
1860.86	7.51582
1866.93	0.910499
1873.01	5.16796
1879.08	1.25466
1885.15	4.26333
1891.23	13.1335
1897.3	6.86442
1903.37	14.5227
1909.45	9.129
1915.52	12.2981
1921.59	6.61808
1927.67	12.3442
1933.74	11.3031
1939.81	9.86164
1945.89	6.35111
1951.96	18.7889
1958.03	2.59902
1964.11	8.729
1970.18	8.45487
1976.25	7.69701
1982.33	13.2527
1988.4	10.6544
1994.47	13.8968
2000.55	7.08447
2006.62	10.9004
2012.7	12.0194
2018.77	16.6987
2024.84	16.8828
2030.92	10.571
2036.99	15.3271
2043.06	17.2533
2049.14	14.0944
2055.21	14.3491
2061.28	11.1033
2067.36	20.4368
2073.43	18.2477
2079.5	12.8874
2085.58	17.9207
2091.65	9.08403
2097.72	10.6072
2100	15.3749