File: Example Data/Raman/CNT - TIM/Raytheon/Al foil/2010/08-11-10/batch 13 _bottom2.txt
1000	569.958
1008.49	530.928
1016.97	554.324
1025.46	557.895
1033.95	556.287
1042.44	600.468
1050.92	597.323
1059.41	622.971
1067.9	569.735
1076.39	587.097
1084.87	597.227
1093.36	613.026
1101.85	599.857
1110.34	642.928
1118.82	585.14
1127.31	617.263
1135.8	642.849
1144.29	637.585
1152.77	662.403
1161.26	646.131
1169.75	659.891
1178.24	668.739
1186.72	650.171
1195.21	690.67
1203.7	711.3
1212.19	653.768
1220.67	693.309
1229.16	708.82
1237.65	706.1
1246.14	745.483
1254.62	768.733
1263.11	789.604
1271.6	831.201
1280.09	846.195
1288.57	828.979
1297.06	908.52
1305.55	949.412
1314.04	1038.82
1322.52	1118.66
1331.01	1235.7
1339.5	1254.07
1347.99	1332.37
1356.47	1309.46
1364.96	1204.89
1373.45	1132.69
1381.94	1028.86
1390.42	978.161
1398.91	908.227
1407.4	916.05
1415.89	894.693
1424.37	826.988
1432.86	855.481
1441.35	823.833
1449.84	824.088
1458.32	832.007
1466.81	819.246
1475.3	855.16
1483.79	816.952
1492.27	798.927
1500.76	801.109
1509.25	811.329
1517.74	852.946
1526.22	858.627
1534.71	842.209
1543.2	882.775
1551.69	954.59
1560.17	993.392
1568.66	1025.34
1577.15	1148.32
1585.64	1249.78
1594.12	1186.92
1602.61	1246.7
1611.1	1167.57
1619.59	1099.26
1628.07	1018.91
1636.56	929.545
1645.05	823.375
1653.54	725.892
1662.02	664.379
1670.51	633.262
1679	611.724
1687.49	626.73
1695.97	586.441
1704.46	585.946
1712.95	594.201
1721.44	585.907
1729.92	593.672
1738.41	578.6
1746.9	557.509
1755.39	578.461
1763.87	553.379
1772.36	588.594
1780.85	592.527
1789.34	596.732
1797.82	580.003
1806.31	567.795
1814.8	594.762
1823.29	569.154
1831.77	567.244
1840.26	561.01
1848.75	579.766
1857.24	572.449
1865.72	586.033
1874.21	566.307
1882.7	576.014
1891.19	578.486
1899.67	586.632
1908.16	548.935
1916.65	561.629
1925.14	560.95
1933.62	540.594
1942.11	542.754
1950.6	552.253
1959.09	556.227
1967.57	548.058
1976.06	562.812
1984.55	504.696
1993.04	574.029
2001.52	578.18
2010.01	560.37
2018.5	596.425
2026.99	591.737
2035.47	578.256
2043.96	574.223
2052.45	570.033
2060.94	553.826
2069.42	566.061
2077.91	557.223
2086.4	560.563
2094.89	577.279
2103.37	576.505
2111.86	566.153
2120.35	563.007
2128.84	513.222
2137.32	549.811
2145.81	554.903
2154.3	533.327
2162.79	540.642
2171.27	562.722
2179.76	572.523
2188.25	542.686
2196.74	552.109
2205.22	563.828
2213.71	536.672
2222.2	549.757
2230.69	565.788
2239.17	572.125
2247.66	545.262
2256.15	541.845
2264.64	546.896
2273.12	553.791
2281.61	547.049
2290.1	573.397
2298.59	555.419
2307.07	563.741
2315.56	553.648
2324.05	555.948
2332.54	617.67
2341.02	565.998
2349.51	554.362
2358	549.536
2366.49	537.16
2374.97	567.944
2383.46	526.826
2391.95	542.517
2400.44	557.104
2408.92	589.025
2417.41	561.167
2425.9	555.569
2434.39	568.669
2442.87	608.736
2451.36	573.395
2459.85	556.493
2468.34	541.06
2476.82	552.89
2485.31	576.874
2493.8	553.391
2502.29	598.651
2510.77	553.153
2519.26	583.452
2527.75	590.421
2536.24	565.198
2544.72	561.464
2553.21	601.113
2561.7	556.202
2570.19	566.565
2578.67	593.809
2587.16	585.218
2595.65	616.75
2604.14	605.389
2612.62	595.086
2621.11	601.689
2629.6	613.103
2638.08	639.673
2646.57	637.815
2655.06	685.924
2663.55	696.746
2672.03	673.41
2680.52	690.543
2689.01	729.776
2697.5	671.317
2705.98	659.517
2714.47	671.928
2722.96	650.872
2731.45	623.145
2739.93	618.249
2748.42	604.507
2756.91	611.07
2765.4	612.12
2773.88	602.69
2782.37	586.639
2790.86	581.522
2799.35	558.945
2807.83	539.07
2816.32	556.012
2824.81	554.248
2833.3	554.078
2841.78	551.395
2850.27	561.693
2858.76	557.023
2867.25	563.822
2875.73	567.656
2884.22	580.931
2892.71	566.929
2901.2	598.942
2909.68	568.191
2918.17	581.064
2926.66	586.81
2935.15	561.009
2943.63	598.297
2952.12	573.21
2960.61	578.799
2969.1	550.703
2977.58	525.512
2986.07	522.96
2994.56	521.563
3003.05	556.169
3011.53	524.051
3020.02	523.5
3028.51	522.928
3037	498.143
3045.48	514.474
3053.97	514.685
3062.46	531.847
3070.95	514.24
3079.43	509.036
3087.92	468.29
3096.41	470.147
3104.9	480.304
3113.38	528.712
3121.87	481.675
3130.36	465.295
3138.85	465.99
3147.33	491.104
3155.82	438.77
3164.31	458.086
3172.8	476.047
3181.28	487.388
3189.77	482.791
3198.26	491.257
3206.75	471.653
3215.23	486.47
3223.72	477.017
3232.21	491.08
3240.7	457.467
3249.18	478.471
3257.67	455.624
3266.16	476.917
3274.65	464.597
3283.13	415.465
3291.62	455.534
3300.11	453.576
3308.6	436.419
3317.08	415.762
3325.57	432.247
3334.06	426.386
3342.55	418.214
3351.03	439.394
3359.52	423.823
3368.01	409.085
3376.5	395.363
3384.98	438.358
3393.47	436.16
3400	433.672