File: Example Data/Raman/CNT - TIM/Raytheon/Al foil/2010/08-11-10/batch 13 _bottom.txt
1000	552.502
1008.49	578.095
1016.97	580.042
1025.46	552.225
1033.95	607.569
1042.44	576.913
1050.92	609.553
1059.41	571.401
1067.9	575.057
1076.39	601.731
1084.87	609.52
1093.36	600.694
1101.85	639.72
1110.34	612.732
1118.82	616.056
1127.31	645.141
1135.8	646.543
1144.29	648.325
1152.77	673.678
1161.26	662.213
1169.75	676.094
1178.24	678.605
1186.72	669.874
1195.21	686.147
1203.7	658.441
1212.19	695.882
1220.67	691.461
1229.16	736.615
1237.65	735.061
1246.14	730.28
1254.62	798.217
1263.11	785.586
1271.6	792.035
1280.09	831.355
1288.57	874.546
1297.06	913.105
1305.55	946.602
1314.04	1027.82
1322.52	1095.36
1331.01	1173.93
1339.5	1221.19
1347.99	1204.28
1356.47	1155.46
1364.96	1126.27
1373.45	1091.12
1381.94	1006.68
1390.42	956.444
1398.91	885.718
1407.4	847.643
1415.89	852.84
1424.37	867.472
1432.86	844.055
1441.35	834.08
1449.84	802.53
1458.32	789.481
1466.81	878.696
1475.3	819.28
1483.79	840.224
1492.27	799.794
1500.76	798.236
1509.25	865.923
1517.74	864.132
1526.22	869.974
1534.71	860
1543.2	891.313
1551.69	970.935
1560.17	1000.34
1568.66	1023.2
1577.15	1135.45
1585.64	1136.76
1594.12	1160.24
1602.61	1108.64
1611.1	1079.29
1619.59	1002.86
1628.07	916.252
1636.56	864.025
1645.05	788.404
1653.54	722.547
1662.02	705.865
1670.51	661.348
1679	612.438
1687.49	621.946
1695.97	602.025
1704.46	597.375
1712.95	584.845
1721.44	588.381
1729.92	601.16
1738.41	564.06
1746.9	575.521
1755.39	596.943
1763.87	570.462
1772.36	593.986
1780.85	600.862
1789.34	552.677
1797.82	597.429
1806.31	614.725
1814.8	591.352
1823.29	552.098
1831.77	599.322
1840.26	562.866
1848.75	575.434
1857.24	574.364
1865.72	618.847
1874.21	621.051
1882.7	569.245
1891.19	572.191
1899.67	582.266
1908.16	598.049
1916.65	580.376
1925.14	563.563
1933.62	542.752
1942.11	576.734
1950.6	565.49
1959.09	549.803
1967.57	564.227
1976.06	569.667
1984.55	575.343
1993.04	583.42
2001.52	577.97
2010.01	557.334
2018.5	567.607
2026.99	559.392
2035.47	559.616
2043.96	593.114
2052.45	552.238
2060.94	559.312
2069.42	581.418
2077.91	563.771
2086.4	566.333
2094.89	572.868
2103.37	551.999
2111.86	541.026
2120.35	567.618
2128.84	542.117
2137.32	579.232
2145.81	551.06
2154.3	549.581
2162.79	556.431
2171.27	581.347
2179.76	557.633
2188.25	540.276
2196.74	559.575
2205.22	556.172
2213.71	526.966
2222.2	560.026
2230.69	526.061
2239.17	544.644
2247.66	509.358
2256.15	540.18
2264.64	581.378
2273.12	571.394
2281.61	568.917
2290.1	556.047
2298.59	570.192
2307.07	522.499
2315.56	556.708
2324.05	566.307
2332.54	571.256
2341.02	550.002
2349.51	533.858
2358	537.034
2366.49	525.961
2374.97	566.401
2383.46	537.08
2391.95	563.01
2400.44	568.303
2408.92	600.456
2417.41	577.055
2425.9	566.841
2434.39	569.449
2442.87	575.413
2451.36	548.158
2459.85	564.48
2468.34	553.365
2476.82	559.048
2485.31	560.473
2493.8	550.857
2502.29	531.591
2510.77	528.204
2519.26	565.658
2527.75	546.627
2536.24	574.61
2544.72	569.899
2553.21	566.947
2561.7	587.462
2570.19	567.692
2578.67	583.393
2587.16	553.975
2595.65	573.206
2604.14	583.604
2612.62	587.518
2621.11	599.008
2629.6	582.211
2638.08	621.51
2646.57	622.435
2655.06	625.839
2663.55	640.389
2672.03	647.103
2680.52	650.952
2689.01	622.675
2697.5	614.286
2705.98	622.997
2714.47	619.211
2722.96	622.211
2731.45	580.937
2739.93	588.228
2748.42	599.687
2756.91	576.334
2765.4	558.225
2773.88	561.579
2782.37	557.107
2790.86	562.219
2799.35	551.247
2807.83	540.599
2816.32	546.874
2824.81	539.377
2833.3	547.35
2841.78	507.997
2850.27	557.493
2858.76	550.879
2867.25	551.639
2875.73	570.279
2884.22	558.798
2892.71	553.913
2901.2	582.035
2909.68	564.411
2918.17	570.576
2926.66	587.968
2935.15	564.498
2943.63	547.809
2952.12	581.115
2960.61	552.884
2969.1	544.955
2977.58	525.541
2986.07	489.393
2994.56	514.049
3003.05	531.889
3011.53	526.57
3020.02	478.096
3028.51	502.53
3037	477.109
3045.48	491.2
3053.97	489.652
3062.46	498.66
3070.95	519.723
3079.43	520.652
3087.92	481.86
3096.41	503.029
3104.9	472.278
3113.38	489.51
3121.87	488.951
3130.36	483.823
3138.85	461.496
3147.33	419.064
3155.82	465.915
3164.31	454.109
3172.8	459.187
3181.28	466.861
3189.77	485.274
3198.26	478.171
3206.75	447.185
3215.23	447.309
3223.72	444.086
3232.21	461.359
3240.7	441.61
3249.18	438.789
3257.67	439.883
3266.16	445.647
3274.65	438.093
3283.13	457.917
3291.62	416.516
3300.11	451.017
3308.6	442.091
3317.08	412.897
3325.57	436.656
3334.06	438.835
3342.55	410.837
3351.03	404.165
3359.52	428.385
3368.01	407.176
3376.5	424.403
3384.98	406.355
3393.47	440.173
3400	398.824