File: Example Data/Raman/CNT - TIM/Raytheon/Al foil/2010/08-11-10/batch 13 _top.txt
1000	614.56
1008.49	604.46
1016.97	617.211
1025.46	639.189
1033.95	643.285
1042.44	628.087
1050.92	656.806
1059.41	658.778
1067.9	645.755
1076.39	670.065
1084.87	678.441
1093.36	638
1101.85	661.253
1110.34	673.33
1118.82	683.84
1127.31	671.239
1135.8	725.925
1144.29	677.898
1152.77	710.057
1161.26	714.016
1169.75	728.996
1178.24	705.204
1186.72	731.532
1195.21	729.587
1203.7	747.169
1212.19	788.922
1220.67	791.735
1229.16	766.871
1237.65	805.634
1246.14	837.295
1254.62	866.503
1263.11	925.678
1271.6	939.784
1280.09	981.993
1288.57	987.486
1297.06	1070.22
1305.55	1150.61
1314.04	1255.71
1322.52	1328.7
1331.01	1454.23
1339.5	1513.81
1347.99	1460.45
1356.47	1398.36
1364.96	1308.01
1373.45	1215.98
1381.94	1135.64
1390.42	1064.16
1398.91	1065.47
1407.4	999.892
1415.89	948.025
1424.37	941.613
1432.86	903.983
1441.35	925.08
1449.84	917.616
1458.32	897.737
1466.81	919.884
1475.3	882.32
1483.79	925.242
1492.27	909.618
1500.76	923.732
1509.25	973.357
1517.74	919.705
1526.22	952.931
1534.71	992.052
1543.2	1027.5
1551.69	1095.41
1560.17	1157.42
1568.66	1242.13
1577.15	1281.74
1585.64	1339.02
1594.12	1364.25
1602.61	1300.35
1611.1	1257.01
1619.59	1065.16
1628.07	973.793
1636.56	883.836
1645.05	787.908
1653.54	753.346
1662.02	722.419
1670.51	677.652
1679	660.276
1687.49	661.37
1695.97	635.197
1704.46	653.837
1712.95	590.731
1721.44	603.342
1729.92	620.978
1738.41	631.584
1746.9	580.472
1755.39	604.54
1763.87	590.065
1772.36	582.122
1780.85	591.278
1789.34	610.455
1797.82	610.769
1806.31	625.382
1814.8	606.444
1823.29	594.058
1831.77	610.394
1840.26	584.929
1848.75	604.496
1857.24	586.303
1865.72	564.043
1874.21	616.892
1882.7	598.396
1891.19	618.888
1899.67	610.588
1908.16	553.585
1916.65	610.584
1925.14	568.842
1933.62	625.21
1942.11	589.199
1950.6	581.076
1959.09	594.52
1967.57	590.625
1976.06	568.709
1984.55	560.847
1993.04	588.521
2001.52	612.903
2010.01	575.89
2018.5	600.18
2026.99	615.685
2035.47	562.97
2043.96	575.842
2052.45	600.109
2060.94	576.206
2069.42	526.91
2077.91	601.387
2086.4	611.41
2094.89	609.223
2103.37	570.685
2111.86	572.14
2120.35	568.798
2128.84	595.558
2137.32	596.94
2145.81	559.079
2154.3	600.354
2162.79	551.839
2171.27	587.331
2179.76	605.089
2188.25	579.396
2196.74	559.883
2205.22	571.204
2213.71	581.372
2222.2	565.464
2230.69	577.007
2239.17	549.281
2247.66	563.985
2256.15	568.227
2264.64	558.406
2273.12	582.816
2281.61	578.448
2290.1	570.661
2298.59	577.287
2307.07	575.358
2315.56	579.904
2324.05	572.884
2332.54	593.527
2341.02	563.325
2349.51	555.313
2358	546.587
2366.49	571.296
2374.97	603.516
2383.46	579.068
2391.95	564.274
2400.44	590.898
2408.92	561.779
2417.41	574.369
2425.9	595.291
2434.39	571.783
2442.87	577.713
2451.36	604.545
2459.85	568.344
2468.34	598.741
2476.82	583.058
2485.31	576.369
2493.8	559.039
2502.29	567.76
2510.77	575.471
2519.26	582.473
2527.75	576.349
2536.24	563.357
2544.72	571.721
2553.21	601.169
2561.7	613.022
2570.19	567.147
2578.67	615.329
2587.16	628.63
2595.65	623.659
2604.14	637.957
2612.62	636.382
2621.11	651.419
2629.6	640.929
2638.08	664.308
2646.57	655.793
2655.06	707.537
2663.55	684.932
2672.03	723.163
2680.52	697.911
2689.01	692.422
2697.5	658
2705.98	660.381
2714.47	632.852
2722.96	625.336
2731.45	623.723
2739.93	646.902
2748.42	606.932
2756.91	596.611
2765.4	639.244
2773.88	597.253
2782.37	596
2790.86	591.689
2799.35	588.672
2807.83	592.286
2816.32	559.738
2824.81	604.075
2833.3	605.071
2841.78	593.009
2850.27	577.188
2858.76	598.296
2867.25	585.514
2875.73	590.309
2884.22	587.767
2892.71	619.22
2901.2	573.396
2909.68	579.832
2918.17	589.357
2926.66	593.558
2935.15	624.573
2943.63	609.394
2952.12	588.105
2960.61	542.156
2969.1	589.957
2977.58	552.805
2986.07	534.416
2994.56	514.119
3003.05	520.617
3011.53	517.014
3020.02	525.901
3028.51	511.789
3037	507.26
3045.48	497.358
3053.97	538.474
3062.46	505.441
3070.95	534.197
3079.43	507.573
3087.92	511.319
3096.41	518.108
3104.9	521.69
3113.38	508.596
3121.87	492.136
3130.36	505.28
3138.85	482.655
3147.33	517.778
3155.82	505.059
3164.31	477.78
3172.8	476.416
3181.28	453.157
3189.77	485.631
3198.26	474.758
3206.75	459.435
3215.23	489.406
3223.72	466.282
3232.21	479.823
3240.7	525.048
3249.18	442.445
3257.67	464.05
3266.16	435.232
3274.65	456.333
3283.13	446.029
3291.62	456.888
3300.11	405.725
3308.6	460.467
3317.08	444.609
3325.57	445.751
3334.06	439.173
3342.55	409.224
3351.03	456.853
3359.52	425.598
3368.01	420.431
3376.5	414.803
3384.98	420.332
3393.47	432.448
3400	409.457