File: Example Data/Raman/CNT - TIM/Raytheon/Al foil/2010/08-11-10/Batch13_top2.txt
1000	562.938
1008.49	607.159
1016.97	612.817
1025.46	575.105
1033.95	586.858
1042.44	604.807
1050.92	621.553
1059.41	650.9
1067.9	624.98
1076.39	605.237
1084.87	629.26
1093.36	633.655
1101.85	648.377
1110.34	647.856
1118.82	644.234
1127.31	663.859
1135.8	707.171
1144.29	676.299
1152.77	701.378
1161.26	711.361
1169.75	697.703
1178.24	739.261
1186.72	702.371
1195.21	731
1203.7	759.7
1212.19	773.14
1220.67	777.419
1229.16	783.779
1237.65	798.94
1246.14	810.797
1254.62	768.296
1263.11	881.604
1271.6	905.32
1280.09	949.522
1288.57	967.099
1297.06	1031.29
1305.55	1080.58
1314.04	1118.46
1322.52	1257.72
1331.01	1354.69
1339.5	1360.93
1347.99	1359.26
1356.47	1292.55
1364.96	1217.32
1373.45	1206.02
1381.94	1081.32
1390.42	1048.7
1398.91	977.42
1407.4	962.293
1415.89	980.372
1424.37	921.394
1432.86	902.213
1441.35	894.54
1449.84	934.232
1458.32	898.324
1466.81	876.13
1475.3	888.6
1483.79	917.064
1492.27	880.011
1500.76	890.099
1509.25	858.699
1517.74	928.202
1526.22	928.594
1534.71	937.367
1543.2	1003.45
1551.69	1044.41
1560.17	1109.07
1568.66	1196.09
1577.15	1229.96
1585.64	1298.13
1594.12	1263.26
1602.61	1225.37
1611.1	1205.16
1619.59	1082.26
1628.07	998.482
1636.56	909.295
1645.05	795.291
1653.54	744.898
1662.02	698.65
1670.51	695.315
1679	631.148
1687.49	612.562
1695.97	643.565
1704.46	601.087
1712.95	621.558
1721.44	608.331
1729.92	620.484
1738.41	604.405
1746.9	612.633
1755.39	600.677
1763.87	597.177
1772.36	590.414
1780.85	594.176
1789.34	578.444
1797.82	608.344
1806.31	609.444
1814.8	588.24
1823.29	617.369
1831.77	622.996
1840.26	580.834
1848.75	598.701
1857.24	646.021
1865.72	579.506
1874.21	597.483
1882.7	610.634
1891.19	596.753
1899.67	587.721
1908.16	564.72
1916.65	592.131
1925.14	587.393
1933.62	564.269
1942.11	610.787
1950.6	604.426
1959.09	578.287
1967.57	582.703
1976.06	557.783
1984.55	578.478
1993.04	542.514
2001.52	590.885
2010.01	584.115
2018.5	609.328
2026.99	566.515
2035.47	575.206
2043.96	572.589
2052.45	575.657
2060.94	569.694
2069.42	561.227
2077.91	579.71
2086.4	554.217
2094.89	561.178
2103.37	573.977
2111.86	580.267
2120.35	549.765
2128.84	553.59
2137.32	577.328
2145.81	572.427
2154.3	568.075
2162.79	600.695
2171.27	581.893
2179.76	589.577
2188.25	600.467
2196.74	554.86
2205.22	555.489
2213.71	562.334
2222.2	578.698
2230.69	570.484
2239.17	590.778
2247.66	533.294
2256.15	543.696
2264.64	550.653
2273.12	541.78
2281.61	554.57
2290.1	573.438
2298.59	582.718
2307.07	581.68
2315.56	555.661
2324.05	593.276
2332.54	612.773
2341.02	565.659
2349.51	563.73
2358	563.782
2366.49	565.459
2374.97	578.58
2383.46	579.185
2391.95	558.523
2400.44	555.831
2408.92	554.721
2417.41	585.42
2425.9	575.367
2434.39	572.032
2442.87	607.106
2451.36	585.558
2459.85	546.565
2468.34	569.45
2476.82	582.654
2485.31	579.141
2493.8	609.785
2502.29	591.724
2510.77	577.472
2519.26	574.875
2527.75	600.517
2536.24	594.123
2544.72	613.467
2553.21	618.636
2561.7	628.578
2570.19	594.492
2578.67	612.654
2587.16	589.2
2595.65	632.985
2604.14	614.672
2612.62	611.861
2621.11	677.173
2629.6	626.345
2638.08	657.322
2646.57	643.687
2655.06	656.715
2663.55	679
2672.03	666.284
2680.52	674.289
2689.01	684.246
2697.5	639.228
2705.98	657.362
2714.47	638.641
2722.96	610.319
2731.45	641.861
2739.93	607.056
2748.42	632.702
2756.91	621.673
2765.4	611.012
2773.88	574.134
2782.37	543.659
2790.86	605.937
2799.35	590.322
2807.83	589.687
2816.32	556.88
2824.81	616.989
2833.3	543.525
2841.78	601.99
2850.27	571.727
2858.76	597.074
2867.25	573.91
2875.73	574.067
2884.22	585.805
2892.71	582.319
2901.2	557.674
2909.68	582.48
2918.17	614.122
2926.66	584.742
2935.15	553.149
2943.63	563.988
2952.12	547.962
2960.61	584.159
2969.1	565.552
2977.58	529.141
2986.07	524.708
2994.56	561.457
3003.05	527.579
3011.53	503.209
3020.02	516.953
3028.51	537.309
3037	530.331
3045.48	495.17
3053.97	507.429
3062.46	546.626
3070.95	525.707
3079.43	499.564
3087.92	539.385
3096.41	516.159
3104.9	473.607
3113.38	516.519
3121.87	486.355
3130.36	496.761
3138.85	522.291
3147.33	497.681
3155.82	468.924
3164.31	493.193
3172.8	474.501
3181.28	487.602
3189.77	483.789
3198.26	487.367
3206.75	492.071
3215.23	487.485
3223.72	498.013
3232.21	470.431
3240.7	475.431
3249.18	459.453
3257.67	444.761
3266.16	437.84
3274.65	462.03
3283.13	443.166
3291.62	459.277
3300.11	415.721
3308.6	440.922
3317.08	451.564
3325.57	466.768
3334.06	423.708
3342.55	436.744
3351.03	418.581
3359.52	471.253
3368.01	416.792
3376.5	445.946
3384.98	416.644
3393.47	436.246
3400	396.627