File: Example Data/Raman/Kara/12-20-10/Si-Graphene/6bulk/SGbulk_8.txt
200	39.6788
212.718	34.3336
225.436	36.9412
238.154	43.6271
250.872	51.9998
263.59	48.5876
276.308	59.3814
289.026	55.0324
301.744	60.4181
314.462	57.555
327.18	62.4951
339.898	69.6975
352.616	65.4448
365.334	66.9823
378.052	66.5855
390.77	68.7076
403.488	66.7207
416.206	67.0796
428.924	75.0979
441.642	85.5146
454.36	97.8839
467.078	116.852
479.797	122.508
492.515	112.015
505.233	76.4618
517.951	52.4796
530.669	37.4219
543.387	23.8568
556.105	22.651
568.823	13.2552
581.541	20.1692
594.259	17.2771
606.977	17.4069
619.695	14.1581
632.413	16.7138
645.131	16.7323
657.849	14.604
670.567	15.7464
683.285	17.0485
696.003	15.4528
708.721	14.7291
721.439	17.2947
734.157	15.2061
746.875	21.4271
759.593	24.0727
772.311	13.5344
785.029	14.3781
797.747	20.0554
810.465	15.7752
823.183	22.6998
835.901	17.3348
848.619	18.6633
861.337	23.6039
874.055	24.9145
886.773	21.8179
899.491	21.1466
912.209	16.9187
924.927	19.5772
937.645	15.1138
950.363	12.8398
963.081	11.755
975.799	13.3413
988.517	9.89842
1001.24	8.61929
1013.95	8.53852
1026.67	5
1039.39	5.13058
1052.11	0.149524
1064.83	0.940924
1077.54	0.217036
1090.26	-0.246906
1102.98	-0.470172
1115.7	1.69901
1128.42	-2.1876
1141.13	-1.98022
1153.85	-2.94806
1166.57	-4.35513
1179.29	-2.4798
1192.01	-5.19962
1204.72	-4.09942
1217.44	-5.38472
1230.16	-4.75329
1242.88	0.167901
1255.6	-7.08318
1268.31	0.964702
1281.03	-5.99189
1293.75	-2.35129
1306.47	-4.01956
1319.19	-1.19602
1331.9	0.7187
1344.62	1.68821
1357.34	2.70452
1370.06	-1.40275
1382.78	-0.0370277
1395.49	-1.47222
1408.21	-2.59551
1420.93	-3.06097
1433.65	-2.49792
1446.37	-1.31478
1459.08	-2.78053
1471.8	-3.15492
1484.52	-5.39961
1497.24	-1.60231
1509.96	-3
1522.67	-4.15931
1535.39	0.430188
1548.11	-4.98446
1560.83	-2.11899
1573.55	-3.50865
1586.26	-0.743058
1598.98	0.877998
1611.7	0.6
1624.42	0.138257
1637.14	-0.536354
1649.85	-2.64876
1662.57	-3.77251
1675.29	-5.44736
1688.01	-4.14534
1700.73	-4.11049
1713.44	-2.62899
1726.16	-4.49087
1738.88	-5.98671
1751.6	-4.62549
1764.32	-4.13689
1777.03	-2.49831
1789.75	-4.59753
1802.47	-5.98614
1815.19	-4.53981
1827.91	-5.4
1840.625	-1.1938
1853.34	-4.88871
1866.06	-4.95433
1878.78	-6.03005
1891.5	-4.55001
1904.22	-7.5821
1916.93	-0.131836
1929.65	-4.95142
1942.37	-2.43316
1955.09	-5.51741
1967.81	-6.16358
1980.52	-2.54765
1993.24	-3.99714
2005.96	-3.65011
2018.68	-5.50904
2031.4	-2.43368
2044.11	-6.22741
2056.83	-2.57103
2069.55	-7.16444
2082.27	-4.98597
2094.99	-3.96362
2107.7	-5.55594
2120.42	-3.28021
2133.14	-1.49275
2145.86	-2.87803
2158.58	-1.13998
2171.29	-1.91254
2184.01	-3.18058
2196.73	-5.30072
2209.45	-4.96502
2222.17	-4.64641
2234.88	-3.42605
2247.6	-4.344
2260.32	-4.2252
2273.04	-2.97044
2285.76	-4.30938
2298.47	-4.11608
2311.19	-2.85216
2323.91	-2.53792
2336.63	3.84924
2349.35	-0.752347
2362.06	-1.66181
2374.78	-1.50795
2387.5	-1.77115
2400.22	-0.321998
2412.94	4.00361
2425.65	11.134
2438.37	33.3252
2451.09	25.5461
2463.81	11.1192
2476.53	7.4049
2489.24	5.85035
2501.96	5.86058
2514.68	5.5528
2527.4	3.0602
2540.12	5.17233
2552.83	3.57365
2565.55	3.91147
2578.27	2.90498
2590.99	2.54615
2603.71	1.11401
2616.42	3.02172
2629.14	1.02159
2641.86	3.30523
2654.58	2.01753
2667.3	1.83108
2680.01	4.29609
2692.73	5.10478
2705.45	4.56891
2718.17	4.12658
2730.89	5.16222
2743.6	7.77515
2756.32	5.77867
2769.04	6.0045
2781.76	5.69186
2794.48	5.01468
2807.19	5.23017
2819.91	2.90972
2832.63	4.58281
2845.35	4.40909
2858.07	2.96688
2870.78	5.7578
2883.5	4.80937
2896.22	5.79364
2908.94	4.43534
2921.66	4.98531
2934.375	5.85307
2947.09	6.97131
2959.81	11.7168
2972.53	5.80354
2985.25	3.48644
2997.97	5.95746
3010.68	2.35875
3023.4	3.31159
3036.12	6.52304
3048.84	1.31347
3061.56	2.77053
3074.27	4.61074
3086.99	4.84068
3099.71	4.60487
3112.43	3.6628
3125.15	4.71887
3137.86	3.74295
3150.58	2.23132
3163.3	4.03973
3176.02	5.17384
3188.74	8.41861
3201.45	5.50154
3214.17	6.06729
3226.89	7.55806
3239.61	5.11188
3252.33	4.09414
3265.04	6.43425
3277.76	4.65687
3290.48	7.92714
3303.2	7.48947
3315.92	7.40339
3328.63	5.35675
3341.35	6.08531
3354.07	7.1824
3366.79	8.98333
3379.51	3.99526
3392.22	12.1505
3404.94	3.63322
3417.66	6.55524
3430.38	9.51971
3443.1	8.10064
3455.81	8.32477
3468.53	6.92031
3481.25	9.47825
3493.97	6.4553
3506.69	7.77804
3519.4	6.53603
3532.12	10.2209
3544.84	4.92622
3557.56	8.12039
3570.28	8.54075
3582.99	6.52877
3595.71	7.00515
3608.43	12.9449
3621.15	10.2785
3633.87	7.92132
3646.58	5.01069
3659.3	9.14476
3672.02	12.3299
3684.74	10.5159
3697.46	11.9165
3700	11.3055