File: Example Data/Raman/Kara/12-20-10/Si-Graphene/6bulk/SGbulk_2.txt
300	1868.47
312.649	2133.72
325.298	2349.17
337.946	2549.13
350.595	2550.32
363.244	2529.51
375.893	2529.69
388.542	2498.03
401.19	2521.16
413.839	2625.49
426.488	2632.9
439.137	2645.18
451.786	2698.17
464.435	2862.26
477.083	3155.03
489.732	3796.87
502.381	5130.26
515.03	4094.41
527.679	2953.11
540.327	2695.79
552.976	2651.8
565.625	2656.76
578.274	2640.12
590.923	2688.5
603.571	2717.83
616.22	2727.09
628.869	2744.25
641.518	2754.94
654.167	2814.92
666.815	2826.16
679.464	2806.72
692.113	2827.24
704.762	2816.02
717.411	2882.18
730.06	2872.12
742.708	2955.44
755.357	2985.63
768.006	3023.09
780.655	3050.41
793.304	3088.57
805.952	3107.57
818.601	3166.28
831.25	3174.92
843.899	3241.81
856.548	3295.89
869.196	3324.2
881.845	3368.76
894.494	3483.46
907.143	3529.2
919.792	3576.38
932.44	3604.61
945.089	3604.85
957.738	3576.47
970.387	3516.23
983.036	3524.65
995.685	3541.02
1008.33	3612.9
1020.98	3627.71
1033.63	3670.21
1046.28	3703.19
1058.93	3721.49
1071.58	3730.49
1084.23	3784.21
1096.875	3762.87
1109.52	3856.98
1122.17	3907.37
1134.82	4002.83
1147.47	4048.25
1160.12	4097.78
1172.77	4155.18
1185.42	4139.5
1198.07	4204.41
1210.71	4325.17
1223.36	4325.63
1236.01	4398.83
1248.66	4490.14
1261.31	4576.57
1273.96	4598.59
1286.61	4599.32
1299.26	4673.84
1311.9	4837.79
1324.55	4820.98
1337.2	5011.91
1349.85	5038.14
1362.5	5173.35
1375.15	5224.52
1387.8	5293.53
1400.45	5310.49
1413.1	5377.29
1425.74	5457.04
1438.39	5607.86
1451.04	5695.16
1463.69	5795.98
1476.34	5859.47
1488.99	5878.03
1501.64	5977.66
1514.29	6011.8
1526.93	6020.5
1539.58	6060
1552.23	6090.64
1564.88	6169.28
1577.53	6298.92
1590.18	6391.76
1602.83	6463.58
1615.48	6569.3
1628.125	6598.95
1640.77	6614.49
1653.42	6628.01
1666.07	6750.3
1678.72	6775.94
1691.37	6880.98
1704.02	6930.81
1716.67	7009.4
1729.32	7103.94
1741.96	7190.44
1754.61	7212.1
1767.26	7353.01
1779.91	7345.96
1792.56	7479.81
1805.21	7571
1817.86	7675.48
1830.51	7830.81
1843.15	7918.92
1855.8	7967.17
1868.45	8064.49
1881.1	8153.77
1893.75	8256.01
1906.4	8330.4
1919.05	8398.12
1931.7	8418.65
1944.35	8542.99
1956.99	8630.68
1969.64	8697.77
1982.29	8905.92
1994.94	8999.5
2007.59	9102.7
2020.24	9230.78
2032.89	9387.51
2045.54	9537.12
2058.18	9535.46
2070.83	9661.69
2083.48	9783.41
2096.13	9863.63
2108.78	9968
2121.43	10087.9
2134.08	10302.8
2146.73	10431.8
2159.375	10578.2
2172.02	10751
2184.67	10913.2
2197.32	10990.7
2209.97	11145.5
2222.62	11242
2235.27	11310.4
2247.92	11561.6
2260.57	11822.6
2273.21	12029.7
2285.86	12181.7
2298.51	12435.4
2311.16	12539.6
2323.81	12720.5
2336.46	12845.6
2349.11	12950.9
2361.76	13103
2374.4	13212.3
2387.05	13449.9
2399.7	13635.4
2412.35	13803.8
2425	14093.2
2437.65	14315.6
2450.3	14439.3
2462.95	14601.4
2475.6	14754.1
2488.24	14899.5
2500.89	15111.7
2513.54	15332.2
2526.19	15528.1
2538.84	15877.3
2551.49	16087.1
2564.14	16379.8
2576.79	16551.5
2589.43	16703
2602.08	16896.8
2614.73	17070.6
2627.38	17229.6
2640.03	17522.6
2652.68	17779
2665.33	18125.4
2677.98	18381
2690.625	18696.3
2703.27	18965.7
2715.92	19247
2728.57	19472.6
2741.22	19762.7
2753.87	20016.2
2766.52	20372.4
2779.17	20572.9
2791.82	20794.5
2804.46	21139.6
2817.11	21407.4
2829.76	21695.9
2842.41	21972.2
2855.06	22414.7
2867.71	22790.6
2880.36	23325.9
2893.01	23649.2
2905.65	24057.5
2918.3	24527.2
2930.95	24905.6
2943.6	25248.6
2956.25	25617.8
2968.9	25728.7
2981.55	26007.3
2994.2	26362
3006.85	26658.3
3019.49	27188
3032.14	27651.5
3044.79	28141.6
3057.44	28763.8
3070.09	29121.5
3082.74	29795.5
3095.39	30054.8
3108.04	30578.2
3120.68	30827.5
3133.33	31165.6
3145.98	31538.5
3158.63	31972.6
3171.28	32456.5
3183.93	32989.7
3196.58	33637
3209.23	34277.9
3221.875	34853.4
3234.52	35390.9
3247.17	35920.1
3259.82	36331.5
3272.47	36722.5
3285.12	37137.4
3297.77	37703.9
3310.42	38213.75
3323.07	38649
3335.71	39024.8
3348.36	39591.1
3361.01	39982.6
3373.66	40529.1
3386.31	41068.2
3398.96	41537.1
3411.61	42288.6
3424.26	42747.5
3436.9	43319.3
3449.55	44141.1
3462.2	44960.2
3474.85	45039.4
3487.5	45810.8
3500.15	46200.1
3512.8	46694
3525.45	47325.3
3538.1	47989.1
3550.74	48560.7
3563.39	49464.4
3576.04	50025.9
3588.69	50744.4
3601.34	51502.2
3613.99	51927.3
3626.64	52582.2
3639.29	53112.2
3651.93	53639.8
3664.58	54146.9
3677.23	54599.9
3689.88	55050.2
3700	55409