File: Example Data/Raman/Kara/12-20-10/Si-Graphene/6bulk/SGbulk_5.txt
300	164.682
312.649	228.158
325.298	214.724
337.946	216.553
350.595	204.2
363.244	187.051
375.893	175.233
388.542	166.658
401.19	162.193
413.839	165.677
426.488	170.184
439.137	183.368
451.786	172.574
464.435	178.308
477.083	229.635
489.732	315.621
502.381	527.05
515.03	1982.88
527.679	4369.17
540.327	432.208
552.976	168.456
565.625	98.2722
578.274	66.186
590.923	61.1593
603.571	62.04
616.22	77.8859
628.869	73.4336
641.518	60.1534
654.167	68.6012
666.815	61.6871
679.464	60.0957
692.113	50.4924
704.762	37.7195
717.411	38.4892
730.06	34.5762
742.708	36.6982
755.357	41.6403
768.006	42.9843
780.655	45.9977
793.304	49.0587
805.952	63.8054
818.601	65.7787
831.25	62.002
843.899	66.4162
856.548	57.0185
869.196	62.1992
881.845	63.432
894.494	70.227
907.143	69.465
919.792	102.971
932.44	193.242
945.089	247.192
957.738	246.668
970.387	230.832
983.036	186.309
995.685	109.182
1008.33	60.3546
1020.98	47.3655
1033.63	25.8626
1046.28	16.3838
1058.93	8.60868
1071.58	8.21118
1084.23	7.63158
1096.875	5.90586
1109.52	5.85423
1122.17	5.19247
1134.82	4.41583
1147.47	-0.392901
1160.12	1.45469
1172.77	-1.46622
1185.42	-6.06089
1198.07	-0.358504
1210.71	-5.12795
1223.36	-0.0605707
1236.01	0.332967
1248.66	-0.8
1261.31	3.42171
1273.96	2.57304
1286.61	3.95126
1299.26	7.19362
1311.9	2.8814
1324.55	13.7294
1337.2	5.55872
1349.85	22.0948
1362.5	27.4289
1375.15	20.3874
1387.8	14.1195
1400.45	11.4703
1413.1	7.07249
1425.74	1.60147
1438.39	4.33538
1451.04	8.23131
1463.69	0.571765
1476.34	2.15812
1488.99	3.58278
1501.64	2.34277
1514.29	0.680435
1526.93	0.146986
1539.58	-2.76051
1552.23	1
1564.88	7.99872
1577.53	8.05481
1590.18	8.10736
1602.83	10.4182
1615.48	11.1408
1628.125	5.29186
1640.77	-0.595533
1653.42	-2.01041
1666.07	-7.67595
1678.72	-10.001
1691.37	-6.62478
1704.02	-7.97064
1716.67	-7.25143
1729.32	-8.74184
1741.96	-11.285
1754.61	-8.37427
1767.26	-12.8098
1779.91	-7.90814
1792.56	-8.07735
1805.21	-11.3976
1817.86	-12.3747
1830.51	-9.28269
1843.15	-8.15354
1855.8	-7.57683
1868.45	-12.2
1881.1	-11.1354
1893.75	-10.7461
1906.4	-11.3654
1919.05	-8.762
1931.7	-10.206
1944.35	-11.7552
1956.99	-11.8728
1969.64	-7.79105
1982.29	-12.7152
1994.94	-8.05288
2007.59	-12.4918
2020.24	-10.4698
2032.89	-11.459
2045.54	-12.3627
2058.18	-9.42774
2070.83	-13.4756
2083.48	-10.8367
2096.13	-11.1357
2108.78	-9.7691
2121.43	-10.6003
2134.08	-10.767
2146.73	-10.4926
2159.375	-9.25103
2172.02	-9.20062
2184.67	-10.1323
2197.32	-6.38339
2209.97	-9.06526
2222.62	-6.82952
2235.27	-9.25323
2247.92	-8.28286
2260.57	-5.6496
2273.21	-8.22046
2285.86	-5.46997
2298.51	-7.08952
2311.16	-7.1374
2323.81	-5.85959
2336.46	-0.743429
2349.11	-6.76774
2361.76	-6.87704
2374.4	-5.5504
2387.05	-5.0827
2399.7	-1.21731
2412.35	-4.66814
2425	1.58395
2437.65	14.3079
2450.3	8.91274
2462.95	-0.167231
2475.6	-1.14047
2488.24	0.588383
2500.89	-0.95989
2513.54	-0.207481
2526.19	-0.0319612
2538.84	0.514434
2551.49	-0.834349
2564.14	-1.42841
2576.79	-1.04312
2589.43	-0.460801
2602.08	-1.15612
2614.73	-1.56123
2627.38	-1.10456
2640.03	0.139135
2652.68	0.714117
2665.33	4.85185
2677.98	0.155735
2690.625	-1.11925
2703.27	3.46955
2715.92	2.99381
2728.57	3.76407
2741.22	4.45349
2753.87	1.01057
2766.52	-0.354947
2779.17	2.57054
2791.82	5.40317
2804.46	2.45292
2817.11	4.90549
2829.76	1.70326
2842.41	4.07001
2855.06	2.54196
2867.71	3.10421
2880.36	5.9462
2893.01	3.48823
2905.65	5.36901
2918.3	8.04844
2930.95	6.70132
2943.6	8.04916
2956.25	7.43986
2968.9	3.35068
2981.55	6.37316
2994.2	0.314168
3006.85	2.75953
3019.49	1.37936
3032.14	-0.182626
3044.79	2.46571
3057.44	2.3676
3070.09	1.41718
3082.74	3.70025
3095.39	3.6409
3108.04	1.11545
3120.68	1.87321
3133.33	1.8796
3145.98	3.53986
3158.63	7.47446
3171.28	0.108982
3183.93	3.31468
3196.58	2.41447
3209.23	3.54854
3221.875	4.88801
3234.52	2.57556
3247.17	4.96095
3259.82	6.84959
3272.47	3.76693
3285.12	0.414526
3297.77	2.72649
3310.42	4.02217
3323.07	3.32286
3335.71	5.00473
3348.36	2.79985
3361.01	5.11672
3373.66	4.38615
3386.31	9.87889
3398.96	4.51437
3411.61	0.736512
3424.26	4.44415
3436.9	11.177
3449.55	6.49657
3462.2	3.82323
3474.85	10.2646
3487.5	8.62255
3500.15	4.45707
3512.8	7.83931
3525.45	8.03282
3538.1	5.22336
3550.74	5.39292
3563.39	5.99988
3576.04	5.62162
3588.69	6.71056
3601.34	6.96205
3613.99	9.62381
3626.64	6.38819
3639.29	8.39309
3651.93	3.53858
3664.58	8.38591
3677.23	5.67989
3689.88	13.5269
3700	8.65991