File: Example Data/Raman/Kara/12-20-10/Si-Graphene/6bulk/SGbulk_3.txt
300	2573.42
303.017	2562.91
306.034	2542.74
309.052	2512.92
312.069	2505.22
315.086	2497.98
318.103	2457.91
321.121	2460.08
324.138	2456.23
327.155	2411.02
330.172	2408.52
333.19	2407.78
336.207	2398.84
339.224	2427.55
342.241	2407.86
345.259	2390.08
348.276	2386.21
351.293	2399.44
354.31	2417.08
357.328	2398.34
360.345	2383.86
363.362	2405.4
366.379	2402.78
369.397	2366.48
372.414	2394.29
375.431	2398.58
378.448	2392
381.466	2393.31
384.483	2392.89
387.5	2372.64
390.517	2352.44
393.534	2356.6
396.552	2357
399.569	2361.99
402.586	2395.11
405.603	2422.12
408.621	2437.7
411.638	2448.52
414.655	2450.48
417.672	2463.53
420.69	2494.6
423.707	2493.77
426.724	2460.3
429.741	2502.4
432.759	2481.16
435.776	2501.16
438.793	2482.66
441.81	2494.6
444.828	2518.65
447.845	2535.19
450.862	2542.41
453.879	2613.43
456.897	2597.27
459.914	2621.08
462.931	2681.16
465.948	2758.95
468.966	2797.46
471.983	2852.06
475	2926.7
478.017	3041.69
481.034	3147.39
484.052	3261.31
487.069	3473.53
490.086	3656.53
493.103	3945.22
496.121	4330.96
499.138	4750.45
502.155	5140.75
505.172	5412.83
508.19	5351.65
511.207	4994.29
514.224	4497.52
517.241	3958.76
520.259	3479.21
523.276	3144.41
526.293	2926.41
529.31	2788.3
532.328	2670.73
535.345	2593.66
538.362	2557.86
541.379	2513.03
544.397	2475.42
547.414	2456.13
550.431	2443.23
553.448	2435.14
556.466	2436.94
559.483	2450.01
562.5	2465.58
565.517	2457.37
568.534	2459.23
571.552	2463.09
574.569	2437.11
577.586	2461.91
580.603	2483
583.621	2498.37
586.638	2525.84
589.655	2501.09
592.672	2497.71
595.69	2520.79
598.707	2525.32
601.724	2524.46
604.741	2535.21
607.759	2569
610.776	2589.11
613.793	2585.1
616.81	2572.01
619.828	2540.23
622.845	2545.79
625.862	2552.43
628.879	2551.87
631.897	2557.33
634.914	2555.77
637.931	2565.17
640.948	2583.85
643.966	2585.19
646.983	2595.44
650	2604.54
653.017	2596.34
656.034	2588.75
659.052	2602.93
662.069	2622.06
665.086	2657.79
668.103	2639.8
671.121	2619.31
674.138	2607.78
677.155	2616.29
680.172	2631.15
683.19	2638.78
686.207	2629.13
689.224	2607.84
692.241	2615.51
695.259	2599.63
698.276	2610.2
701.293	2646.69
704.31	2646.51
707.328	2662.61
710.345	2659.08
713.362	2639.66
716.379	2648.13
719.397	2682.95
722.414	2697.92
725.431	2701.74
728.448	2725.7
731.466	2723.96
734.483	2720.57
737.5	2734.93
740.517	2765.62
743.534	2791.11
746.552	2816.08
749.569	2812.91
752.586	2822.31
755.603	2827.79
758.621	2819.61
761.638	2818.23
764.655	2805.68
767.672	2836.14
770.69	2852.88
773.707	2866.78
776.724	2878.7
779.741	2862.54
782.759	2880.61
785.776	2869.78
788.793	2903.62
791.81	2905.48
794.828	2908.82
797.845	2896.74
800.862	2919.99
803.879	2913.08
806.897	2919.93
809.914	2937.98
812.931	2946.02
815.948	2943.77
818.966	2983.48
821.983	2990.75
825	2985.09
828.017	3039.38
831.034	3026.05
834.052	3075.54
837.069	3031.35
840.086	3043.02
843.103	3088.88
846.121	3026.21
849.138	3071.08
852.155	3118.39
855.172	3094.54
858.19	3120.63
861.207	3156.06
864.224	3142.75
867.241	3164.81
870.259	3151.51
873.276	3177.54
876.293	3221.19
879.31	3217.19
882.328	3204.49
885.345	3245.66
888.362	3252.5
891.379	3255.9
894.397	3293.78
897.414	3319.07
900.431	3354.36
903.448	3352.55
906.466	3380.75
909.483	3398.48
912.5	3411.47
915.517	3365.56
918.534	3393.47
921.552	3444.97
924.569	3433.47
927.586	3430.56
930.603	3395.75
933.621	3451.27
936.638	3438.06
939.655	3533.42
942.672	3473.69
945.69	3485.76
948.707	3445.52
951.724	3516.33
954.741	3474.58
957.759	3437.2
960.776	3438.9
963.793	3431.66
966.81	3428
969.828	3418.46
972.845	3408.79
975.862	3425.58
978.879	3423.86
981.897	3412.58
984.914	3411.05
987.931	3404.79
990.948	3384.62
993.966	3416.49
996.983	3414.27
1000	3436.49