File: Example Data/Raman/Kara/12-20-10/Si-Graphene/6bulk/SGbulk_4.txt
300	172.549
312.649	213.119
325.298	214.035
337.946	218.357
350.595	204.805
363.244	191.943
375.893	174.958
388.542	171.449
401.19	173.001
413.839	159.376
426.488	176.39
439.137	186.948
451.786	170.739
464.435	180.068
477.083	228.639
489.732	325.603
502.381	542.049
515.03	1962.5
527.679	4412.79
540.327	446.385
552.976	179.458
565.625	97.9313
578.274	67.8641
590.923	65.9562
603.571	67.1257
616.22	84.0845
628.869	75.2376
641.518	71.9069
654.167	75.6193
666.815	73.6094
679.464	67.8531
692.113	55.8599
704.762	49.6156
717.411	47.1325
730.06	36.6888
742.708	42.8585
755.357	40.3238
768.006	50.6311
780.655	49.7721
793.304	53.9981
805.952	61.1024
818.601	67.7046
831.25	75.7154
843.899	64.5174
856.548	65.9737
869.196	68.9476
881.845	60.736
894.494	72.827
907.143	79.6083
919.792	105.039
932.44	197.834
945.089	249.562
957.738	252.537
970.387	232.536
983.036	187.727
995.685	109.782
1008.33	73.526
1020.98	54.8451
1033.63	30.042
1046.28	19.7919
1058.93	12.6852
1071.58	10.1371
1084.23	9.77545
1096.875	9.47216
1109.52	2.18528
1122.17	9.25241
1134.82	5.715
1147.47	5.6142
1160.12	1.37094
1172.77	4.17758
1185.42	-1.60298
1198.07	0.864674
1210.71	-0.603408
1223.36	2.54309
1236.01	2.83396
1248.66	2.40526
1261.31	9.26305
1273.96	4.41404
1286.61	9.94622
1299.26	8.72511
1311.9	7.36511
1324.55	14.4513
1337.2	21.4435
1349.85	22.6834
1362.5	27.3627
1375.15	27.5671
1387.8	17.9268
1400.45	17.9765
1413.1	14.4836
1425.74	10.2561
1438.39	8.40613
1451.04	5.93738
1463.69	4.81625
1476.34	4.37679
1488.99	5.66523
1501.64	1.53343
1514.29	2.21102
1526.93	3.8477
1539.58	4.70127
1552.23	7.11114
1564.88	8.18147
1577.53	8.35577
1590.18	10.8147
1602.83	12.8208
1615.48	7.13261
1628.125	6.26075
1640.77	1.66592
1653.42	1
1666.07	-2.68495
1678.72	-4.65811
1691.37	-5.45131
1704.02	-7.93019
1716.67	-9.0077
1729.32	-4.5414
1741.96	-6.63217
1754.61	-8.22027
1767.26	-4.82447
1779.91	-4.50488
1792.56	-7.97072
1805.21	-3.59006
1817.86	-7.4918
1830.51	-9.77519
1843.15	-3.6485
1855.8	-4.569
1868.45	-6.54987
1881.1	-5.3613
1893.75	-8.67066
1906.4	-8.03455
1919.05	-10.11
1931.7	-9.58796
1944.35	-7.35201
1956.99	-5.72342
1969.64	-7.43496
1982.29	-7.34547
1994.94	-7.2974
2007.59	-6.17498
2020.24	-7.73019
2032.89	-9.28507
2045.54	-6.71638
2058.18	-7.94718
2070.83	-9.10716
2083.48	-6.87941
2096.13	-8.07756
2108.78	-5.14568
2121.43	-5.54106
2134.08	-5.30343
2146.73	-6.94193
2159.375	-3.88254
2172.02	-6.65583
2184.67	-5.40731
2197.32	-6.84285
2209.97	-7.59396
2222.62	-4.77111
2235.27	-5.31082
2247.92	-7.23396
2260.57	-5.67512
2273.21	-4.54235
2285.86	-3.36449
2298.51	-4.02592
2311.16	-4.61131
2323.81	-4.10662
2336.46	4.08378
2349.11	-3.71663
2361.76	-6.0924
2374.4	-3.64939
2387.05	-2.51948
2399.7	1.38282
2412.35	-1.30561
2425	4.16179
2437.65	13.1193
2450.3	12.7334
2462.95	2.01015
2475.6	2.51524
2488.24	1.11946
2500.89	0.686111
2513.54	1.22345
2526.19	4.05257
2538.84	2.49502
2551.49	0.55218
2564.14	1.45428
2576.79	1.8245
2589.43	2.41839
2602.08	3.1979
2614.73	2.67596
2627.38	0.996351
2640.03	2.4827
2652.68	2.89483
2665.33	5.81836
2677.98	5.93128
2690.625	7.04248
2703.27	4.18132
2715.92	4.44926
2728.57	7.77999
2741.22	3.46618
2753.87	5.79842
2766.52	3.65855
2779.17	4.77895
2791.82	2.76418
2804.46	5.19585
2817.11	5.42924
2829.76	7.53696
2842.41	5.63072
2855.06	5.84414
2867.71	5.10174
2880.36	4.21367
2893.01	9.35954
2905.65	4.20813
2918.3	8.99534
2930.95	8.7725
2943.6	10.4794
2956.25	7.31885
2968.9	8.02009
2981.55	8.73902
2994.2	6.9191
3006.85	7.57134
3019.49	6.67033
3032.14	6.13849
3044.79	8.52143
3057.44	6.33831
3070.09	3.79906
3082.74	5.83969
3095.39	5.06528
3108.04	6.11778
3120.68	4.66365
3133.33	5.25354
3145.98	2.45017
3158.63	3.98364
3171.28	2.92586
3183.93	5.31723
3196.58	3.35417
3209.23	8.17263
3221.875	7.5738
3234.52	3.68127
3247.17	4.09419
3259.82	5.70867
3272.47	7.96889
3285.12	4.75635
3297.77	7.16299
3310.42	9.77005
3323.07	9.66805
3335.71	8.61987
3348.36	8.34222
3361.01	6.84457
3373.66	7.28129
3386.31	7.52545
3398.96	9.71778
3411.61	5.74353
3424.26	5.09505
3436.9	10.1064
3449.55	7.22705
3462.2	10.99
3474.85	5.02462
3487.5	11.8294
3500.15	12.0614
3512.8	9.22511
3525.45	5.97266
3538.1	8.20217
3550.74	6.33823
3563.39	8.92575
3576.04	7.1604
3588.69	13.66
3601.34	7.89089
3613.99	9.26821
3626.64	10.1749
3639.29	10.2892
3651.93	8.18347
3664.58	13.0861
3677.23	9.90133
3689.88	5.20567
3700	11.7859