File: Example Data/Raman/Kara/12-20-10/Si-Graphene/6bulk/SGbulk_6.txt
300	161.652
312.649	212.856
325.298	203.098
337.946	213.512
350.595	189.07
363.244	182.058
375.893	175.817
388.542	163.966
401.19	155.79
413.839	161.562
426.488	167.664
439.137	174.283
451.786	166.4
464.435	177.634
477.083	221.82
489.732	324.838
502.381	530.806
515.03	1982.33
527.679	4263.53
540.327	427.278
552.976	159.853
565.625	85.996
578.274	61.8955
590.923	54.8469
603.571	62.4743
616.22	78.6274
628.869	69.7251
641.518	61.7096
654.167	60.2699
666.815	64.7807
679.464	55.7535
692.113	47.7259
704.762	39.4221
717.411	33.2626
730.06	34.9567
742.708	39.5943
755.357	41.2613
768.006	43.3693
780.655	45.4698
793.304	46.3138
805.952	61.915
818.601	58.4496
831.25	62.3505
843.899	57.6361
856.548	61.7591
869.196	59.5262
881.845	57.5279
894.494	66.6686
907.143	71.8217
919.792	103.542
932.44	189.758
945.089	249.898
957.738	233.568
970.387	232.814
983.036	193.464
995.685	106.949
1008.33	71.0962
1020.98	42.9559
1033.63	22.7588
1046.28	9.55609
1058.93	5.29391
1071.58	7.72447
1084.23	0.7193
1096.875	2.92527
1109.52	2.40981
1122.17	1.1262
1134.82	-1.38417
1147.47	-2.66805
1160.12	0.724437
1172.77	-3.92123
1185.42	-7.29553
1198.07	-5.78168
1210.71	-3.64596
1223.36	-6.4992
1236.01	-5.70011
1248.66	-1.00438
1261.31	-1.63257
1273.96	0.787081
1286.61	3.90757
1299.26	6.31234
1311.9	6.25115
1324.55	8.74171
1337.2	16.2239
1349.85	17.624
1362.5	19.7752
1375.15	16.1139
1387.8	14.1738
1400.45	12.0706
1413.1	6.2425
1425.74	4.94244
1438.39	0.646222
1451.04	-0.342172
1463.69	2.5265
1476.34	-0.427923
1488.99	-3.10538
1501.64	-5.73314
1514.29	-5.70248
1526.93	-3.64504
1539.58	-4.43949
1552.23	-0.73341
1564.88	3.98722
1577.53	1.86731
1590.18	5.28328
1602.83	7.65277
1615.48	3.9748
1628.125	6.1096
1640.77	-3.20112
1653.42	-5.23792
1666.07	-6.88045
1678.72	-7.9822
1691.37	-12.6567
1704.02	-10.7496
1716.67	-9.35577
1729.32	-13.4352
1741.96	-8.61617
1754.61	-10.9376
1767.26	-10.2878
1779.91	-11.5769
1792.56	-11.9645
1805.21	-12.605
1817.86	-11.4253
1830.51	-7.54729
1843.15	-11.53
1855.8	-10.3155
1868.45	-10.27
1881.1	-13.0451
1893.75	-9.31735
1906.4	-14.8752
1919.05	-9.998
1931.7	-12.7759
1944.35	-9.49438
1956.99	-11.9608
1969.64	-13.0915
1982.29	-15.2439
1994.94	-13.9173
2007.59	-11.025
2020.24	-11.4127
2032.89	-13.856
2045.54	-11.3254
2058.18	-9.58091
2070.83	-15.0925
2083.48	-11.4787
2096.13	-10.7353
2108.78	-12.3304
2121.43	-10.7462
2134.08	-11.3502
2146.73	-9.85131
2159.375	-13.2711
2172.02	-9.83889
2184.67	-12.7379
2197.32	-11.0896
2209.97	-11.1975
2222.62	-12.0409
2235.27	-9.29962
2247.92	-11.6695
2260.57	-10.9944
2273.21	-9.85961
2285.86	-8.85767
2298.51	-9.20264
2311.16	-10.6356
2323.81	-7.86203
2336.46	-2.00393
2349.11	-11.2727
2361.76	-8.56437
2374.4	-6.86212
2387.05	-8.80273
2399.7	-5.3106
2412.35	-5.80319
2425	-3.28138
2437.65	10.8165
2450.3	4.15395
2462.95	0.228954
2475.6	-1.70371
2488.24	-2.87779
2500.89	-4.20801
2513.54	-1.10825
2526.19	-1.91124
2538.84	-2.05094
2551.49	-0.855458
2564.14	-2.78083
2576.79	-3.81183
2589.43	-3.27766
2602.08	-4.03554
2614.73	-0.362931
2627.38	-4.6004
2640.03	-0.673197
2652.68	-1.6777
2665.33	0.353548
2677.98	-0.700585
2690.625	0.256918
2703.27	2.78267
2715.92	1.58291
2728.57	1.09672
2741.22	1.22047
2753.87	1.36047
2766.52	0.748125
2779.17	0.522203
2791.82	0.871755
2804.46	-0.509416
2817.11	1.27572
2829.76	3.01781
2842.41	-0.63681
2855.06	2.06537
2867.71	1.99105
2880.36	0.824288
2893.01	2.79475
2905.65	3.78725
2918.3	4.74226
2930.95	4.13986
2943.6	3.06073
2956.25	5.81384
2968.9	4.18068
2981.55	1.42482
2994.2	0.648436
3006.85	4.08673
3019.49	2.65343
3032.14	3.71722
3044.79	2.92987
3057.44	1.65363
3070.09	1.40079
3082.74	0.836973
3095.39	3.83913
3108.04	-4.99561
3120.68	-0.599642
3133.33	3.46676
3145.98	0.175805
3158.63	0.703401
3171.28	3.34318
3183.93	1.64421
3196.58	1.22874
3209.23	2.41383
3221.875	1.093
3234.52	1.28804
3247.17	7.12814
3259.82	2.50809
3272.47	1.48104
3285.12	1.97446
3297.77	2.19056
3310.42	4.34138
3323.07	3.13704
3335.71	0.0496445
3348.36	3.05784
3361.01	0.806072
3373.66	1.12401
3386.31	4.33458
3398.96	6.92093
3411.61	2.96379
3424.26	4.48811
3436.9	-0.407898
3449.55	3.77027
3462.2	3.71284
3474.85	5.23756
3487.5	5.70996
3500.15	4.91999
3512.8	4.67215
3525.45	3.03504
3538.1	0.412424
3550.74	7.80609
3563.39	6.73579
3576.04	7.13651
3588.69	7.41714
3601.34	1.87013
3613.99	6.65603
3626.64	6.40073
3639.29	4.44887
3651.93	3.76108
3664.58	3.90468
3677.23	8.57678
3689.88	3.14159
3700	10.1397