File: Example Data/Raman/Kara/12-20-10/Si-Graphene/6bulk/SGbulk.txt
300	2101.16
312.649	2382.84
325.298	2679.48
337.946	2941.31
350.595	2953.58
363.244	2966.2
375.893	2930.36
388.542	2880.55
401.19	2959.35
413.839	2997.04
426.488	3035.61
439.137	3066.46
451.786	3142.56
464.435	3287.24
477.083	3549.18
489.732	4174.79
502.381	5424.42
515.03	4345.21
527.679	3314.86
540.327	3106.1
552.976	3086.26
565.625	3130
578.274	3145.71
590.923	3179.89
603.571	3190.96
616.22	3240.54
628.869	3238.4
641.518	3252.58
654.167	3298.91
666.815	3316.26
679.464	3290.97
692.113	3327.23
704.762	3351.66
717.411	3372.94
730.06	3444.14
742.708	3507.62
755.357	3593.54
768.006	3597.79
780.655	3623.58
793.304	3649.01
805.952	3680.32
818.601	3708.5
831.25	3780.93
843.899	3842.69
856.548	3885.08
869.196	3910.29
881.845	3990.67
894.494	4045.43
907.143	4125.56
919.792	4189.81
932.44	4180.5
945.089	4217.53
957.738	4261.95
970.387	4233.96
983.036	4158.35
995.685	4223.84
1008.33	4216.51
1020.98	4337.97
1033.63	4357.76
1046.28	4412.04
1058.93	4443.6
1071.58	4469.3
1084.23	4502.27
1096.875	4496.12
1109.52	4594.68
1122.17	4663.96
1134.82	4720.51
1147.47	4824.84
1160.12	4859.64
1172.77	4929.2
1185.42	4951.37
1198.07	5055.42
1210.71	5047.89
1223.36	5163.75
1236.01	5324.67
1248.66	5390.61
1261.31	5457.4
1273.96	5534.49
1286.61	5515.73
1299.26	5594.77
1311.9	5680.89
1324.55	5819.26
1337.2	5916.8
1349.85	6004.71
1362.5	6182.34
1375.15	6209.78
1387.8	6331.19
1400.45	6381.73
1413.1	6427.8
1425.74	6518.09
1438.39	6687.64
1451.04	6800.5
1463.69	6957.7
1476.34	7004.56
1488.99	7022.46
1501.64	7142.7
1514.29	7156.14
1526.93	7192.51
1539.58	7238.1
1552.23	7273.79
1564.88	7376.38
1577.53	7512.67
1590.18	7568.12
1602.83	7713.52
1615.48	7776.16
1628.125	7809.11
1640.77	7837.05
1653.42	7937.97
1666.07	8034.81
1678.72	8071.94
1691.37	8146.28
1704.02	8192.22
1716.67	8349.09
1729.32	8456.72
1741.96	8508.13
1754.61	8579.14
1767.26	8708.73
1779.91	8783.56
1792.56	8897.95
1805.21	9050.84
1817.86	9092.03
1830.51	9279.62
1843.15	9428.1
1855.8	9472.58
1868.45	9616.22
1881.1	9708.53
1893.75	9726.25
1906.4	9816.1
1919.05	9942.26
1931.7	10040.6
1944.35	10059.5
1956.99	10225.8
1969.64	10322.9
1982.29	10444.1
1994.94	10698.6
2007.59	10864.7
2020.24	10975.4
2032.89	11168
2045.54	11289.8
2058.18	11354.6
2070.83	11474.8
2083.48	11659
2096.13	11808
2108.78	11867.3
2121.43	12003.2
2134.08	12209.2
2146.73	12458.7
2159.375	12585.9
2172.02	12806.4
2184.67	12961.3
2197.32	13116.3
2209.97	13226.9
2222.62	13424.7
2235.27	13580.6
2247.92	13758.5
2260.57	14061.1
2273.21	14329.7
2285.86	14520.3
2298.51	14822
2311.16	14937.9
2323.81	15159.6
2336.46	15252.3
2349.11	15404.9
2361.76	15644.7
2374.4	15835.7
2387.05	16040.4
2399.7	16266.9
2412.35	16494
2425	16723
2437.65	16965.625
2450.3	17181.5
2462.95	17356.3
2475.6	17483.3
2488.24	17686.2
2500.89	17987.2
2513.54	18120.5
2526.19	18417.3
2538.84	18718.6
2551.49	18998
2564.14	19246.8
2576.79	19517.9
2589.43	19692.2
2602.08	19905.8
2614.73	20064.9
2627.38	20304.1
2640.03	20473.7
2652.68	20921.2
2665.33	21075.4
2677.98	21469.2
2690.625	21831.6
2703.27	22194
2715.92	22463.5
2728.57	22705.5
2741.22	22962.4
2753.87	23206.1
2766.52	23591.6
2779.17	23849.6
2791.82	24204
2804.46	24413.3
2817.11	24757.4
2829.76	25064.4
2842.41	25402.2
2855.06	25782.9
2867.71	26155.4
2880.36	26657.8
2893.01	27131.8
2905.65	27522.2
2918.3	28032.7
2930.95	28461.4
2943.6	28896
2956.25	29050.5
2968.9	29257.3
2981.55	29560.6
2994.2	29845.8
3006.85	30182.4
3019.49	30728
3032.14	31198.9
3044.79	31750.8
3057.44	32313.5
3070.09	32821.6
3082.74	33383.6
3095.39	33763.2
3108.04	34069.7
3120.68	34506.875
3133.33	34807.6
3145.98	35259
3158.63	35713.8
3171.28	36319.6
3183.93	36798.8
3196.58	37483
3209.23	38063.4
3221.875	38654.5
3234.52	39285.4
3247.17	39903.1
3259.82	40315.9
3272.47	40902.6
3285.12	41265.7
3297.77	41876.7
3310.42	42312.1
3323.07	42734
3335.71	43101.3
3348.36	43761.8
3361.01	44200.2
3373.66	44724
3386.31	45226.9
3398.96	45816.1
3411.61	46530.3
3424.26	47042.4
3436.9	47584.2
3449.55	48567.2
3462.2	49076.5
3474.85	49516.9
3487.5	50099.25
3500.15	50706.1
3512.8	51243.9
3525.45	51995
3538.1	52520.7
3550.74	53350.4
3563.39	54141.6
3576.04	54641.7
3588.69	55410.8
3601.34	56127.7
3613.99	56915.2
3626.64	57339.8
3639.29	57789.8
3651.93	58226.1
3664.58	58907.7
3677.23	58992.7
3689.88	59433.7
3700	59665