File: Example Data/Raman/Kara/12-20-10/Si-Graphene/6bulk/SGbulk_7.txt
300	166.856
312.649	218.517
325.298	209.684
337.946	199.959
350.595	198.849
363.244	178.851
375.893	166.158
388.542	155.339
401.19	155.262
413.839	167.193
426.488	164.513
439.137	173.171
451.786	163.695
464.435	168.994
477.083	220.74
489.732	319.178
502.381	544.111
515.03	1958.22
527.679	4253.35
540.327	435.855
552.976	166.563
565.625	93.2035
578.274	62.073
590.923	53.4407
603.571	61.5828
616.22	76.9401
628.869	74.175
641.518	59.5507
654.167	64.8024
666.815	58.7934
679.464	58.382
692.113	40.9401
704.762	33.1533
717.411	32.4145
730.06	31.1339
742.708	29.2944
755.357	37.3672
768.006	47.2698
780.655	44.0233
793.304	43.2331
805.952	55.4365
818.601	66.1875
831.25	60.4082
843.899	60.1302
856.548	50.99
869.196	54.1262
881.845	55.4641
894.494	61.4897
907.143	65.3318
919.792	102.233
932.44	196.269
945.089	241.525
957.738	242.601
970.387	228.995
983.036	179.182
995.685	102.818
1008.33	63.9718
1020.98	47.5988
1033.63	19.5381
1046.28	16.0115
1058.93	6.57046
1071.58	8.61118
1084.23	0.164901
1096.875	3.09158
1109.52	0.555585
1122.17	-0.34759
1134.82	-0.913333
1147.47	-4.48642
1160.12	-8.35931
1172.77	-1.17623
1185.42	-3.18567
1198.07	-2.27439
1210.71	-5.38354
1223.36	-0.886174
1236.01	2.63462
1248.66	-1.2
1261.31	-5.73695
1273.96	3.65955
1286.61	-1.37563
1299.26	2.23106
1311.9	7.39069
1324.55	9.54224
1337.2	10.8261
1349.85	17.0834
1362.5	24.6786
1375.15	12.2049
1387.8	14.2651
1400.45	10.2824
1413.1	5.09409
1425.74	4.28781
1438.39	5.47076
1451.04	0.537378
1463.69	0.108123
1476.34	0.28831
1488.99	-5.62508
1501.64	-3.80949
1514.29	-5.25124
1526.93	0.954965
1539.58	-1.46178
1552.23	-3.02204
1564.88	4.83706
1577.53	4.67789
1590.18	3.37458
1602.83	5.2645
1615.48	3.42577
1628.125	2.26221
1640.77	-0.418984
1653.42	-4.36431
1666.07	-8.75752
1678.72	-10.8581
1691.37	-10.8991
1704.02	-12.21
1716.67	-9.68894
1729.32	-12.7291
1741.96	-12.0713
1754.61	-10.5871
1767.26	-11.2488
1779.91	-13.1606
1792.56	-12.6613
1805.21	-12.1185
1817.86	-12.067
1830.51	-11.091
1843.15	-9.68283
1855.8	-11.4845
1868.45	-14.4125
1881.1	-11.4516
1893.75	-11.1293
1906.4	-14.6436
1919.05	-9.288
1931.7	-10.9729
1944.35	-11.2016
1956.99	-10.8794
1969.64	-13.2691
1982.29	-14.3288
1994.94	-13.1471
2007.59	-12.2167
2020.24	-9.93019
2032.89	-12.6552
2045.54	-12.5119
2058.18	-12.9211
2070.83	-13.6513
2083.48	-10.6239
2096.13	-10.7687
2108.78	-11.1669
2121.43	-14.5925
2134.08	-8.75606
2146.73	-10.9795
2159.375	-11.1344
2172.02	-11.5772
2184.67	-11.0592
2197.32	-11.7206
2209.97	-12.5807
2222.62	-12.5839
2235.27	-10.6446
2247.92	-10.3834
2260.57	-10.3285
2273.21	-9.6265
2285.86	-9.24065
2298.51	-8.66142
2311.16	-9.54291
2323.81	-12.0764
2336.46	-2.6247
2349.11	-8.85912
2361.76	-10.8517
2374.4	-7.11896
2387.05	-9.72161
2399.7	-8.84011
2412.35	-3.83267
2425	-2.59175
2437.65	7.40823
2450.3	6.67281
2462.95	-1.8474
2475.6	-3.8263
2488.24	-6.09838
2500.89	-5.57505
2513.54	-5.33351
2526.19	-3.15327
2538.84	-5.84793
2551.49	-1.48994
2564.14	-4.60825
2576.79	-3.95909
2589.43	-3.47476
2602.08	-4.70874
2614.73	-6.29669
2627.38	-4.05468
2640.03	-4.57876
2652.68	-4.15337
2665.33	-4.38381
2677.98	-2.9473
2690.625	-0.463561
2703.27	0.0919435
2715.92	-1.64689
2728.57	-4.20369
2741.22	-1.55062
2753.87	-0.526687
2766.52	-0.818887
2779.17	-0.319626
2791.82	1.21495
2804.46	0.303613
2817.11	-2.08288
2829.76	-0.474092
2842.41	-0.27494
2855.06	-1.21734
2867.71	-2.0232
2880.36	0.767458
2893.01	1.63817
2905.65	-0.180258
2918.3	10.0093
2930.95	1.00119
2943.6	4.78745
2956.25	5.37387
2968.9	2.01392
2981.55	0.0498998
2994.2	-1.64741
3006.85	44.5923
3019.49	-2.38106
3032.14	0.633532
3044.79	-4.21499
3057.44	-3.28224
3070.09	0.939999
3082.74	-0.692685
3095.39	-2.16757
3108.04	-2.39804
3120.68	-0.670385
3133.33	0.132611
3145.98	-1.87338
3158.63	-0.391104
3171.28	-0.230468
3183.93	3.34155
3196.58	-2.45894
3209.23	-0.35308
3221.875	-3.1375
3234.52	0.848189
3247.17	2.04465
3259.82	-1.14565
3272.47	-1.45536
3285.12	-0.258884
3297.77	1.2616
3310.42	1.95482
3323.07	0.808749
3335.71	-1.42831
3348.36	1.37421
3361.01	0.738778
3373.66	1.66747
3386.31	-1.41752
3398.96	-1.27815
3411.61	2.71625
3424.26	3.94801
3436.9	-0.703659
3449.55	-1.27891
3462.2	-0.722431
3474.85	-2.90478
3487.5	2.10871
3500.15	4.3343
3512.8	0.118783
3525.45	2.87809
3538.1	-0.576067
3550.74	0.817766
3563.39	1.04675
3576.04	4.21732
3588.69	3.88241
3601.34	3.42991
3613.99	0.79825
3626.64	4.43316
3639.29	0.479699
3651.93	4.34314
3664.58	5.91793
3677.23	3.53582
3689.88	3.28227
3700	0.966384