File: Example Data/Raman/CNT - TIM/Raytheon/Al foil/2010/07-02-10/Batch 13 - bottom.txt
400	109.457
406.069	120.98
412.138	121.117
418.208	113.256
424.277	119.571
430.346	115.66
436.415	111.154
442.485	109.104
448.554	114.407
454.623	105.712
460.692	107.167
466.762	112.222
472.831	115.432
478.9	100.336
484.969	105.493
491.038	102.978
497.108	100.619
503.177	89.306
509.246	97.8052
515.315	92.0206
521.385	100.988
527.454	96.3348
533.523	92.1477
539.592	92.261
545.661	99.5499
551.731	93.002
557.8	91.5
563.869	98.204
569.938	96.4818
576.008	93.6721
582.077	97.851
588.146	105.909
594.215	100.997
600.284	103.257
606.354	100.129
612.423	98.2793
618.492	108.237
624.561	103.07
630.631	104.993
636.7	97.9191
642.769	102.057
648.838	110.796
654.908	97.9065
660.977	113.012
667.046	101.887
673.115	113.657
679.184	110.991
685.254	120.837
691.323	115.662
697.392	116.461
703.461	121.358
709.531	119.789
715.6	117.138
721.669	117.55
727.738	132.26
733.807	130.181
739.877	127.487
745.946	132.482
752.015	130.832
758.084	126.998
764.154	133.523
770.223	127.025
776.292	134.553
782.361	146.402
788.431	138.437
794.5	141.474
800.569	133.086
806.638	149.013
812.707	152.637
818.777	154.404
824.846	155.013
830.915	158.131
836.984	150.525
843.054	152.556
849.123	154.672
855.192	156.116
861.261	156.679
867.331	143.761
873.4	140.036
879.469	138.775
885.538	131.427
891.607	126.758
897.677	122.41
903.746	129.112
909.815	120.659
915.884	129.026
921.954	123.454
928.023	116.81
934.092	123.229
940.161	128.314
946.23	123.982
952.3	121.669
958.369	121.125
964.438	113.803
970.507	119.121
976.577	123.111
982.646	121.817
988.715	126.542
994.784	138.668
1000.85	130.567
1006.92	138.585
1012.99	145.724
1019.06	140.231
1025.13	157.083
1031.2	150.047
1037.27	161.445
1043.34	159.062
1049.41	175.508
1055.48	176.453
1061.55	174.101
1067.61	176.646
1073.68	179.868
1079.75	185.526
1085.82	187.009
1091.89	192.169
1097.96	194.185
1104.03	199.931
1110.1	207.731
1116.17	217.557
1122.24	217.28
1128.31	234.202
1134.38	237.219
1140.45	255.916
1146.51	241.533
1152.58	244.62
1158.65	250.784
1164.72	266.5
1170.79	270.522
1176.86	276.58
1182.93	277.185
1189	284.027
1195.07	283.145
1201.14	286.319
1207.21	299.719
1213.28	306.626
1219.35	320.549
1225.41	317.712
1231.48	333.111
1237.55	355.84
1243.62	361.681
1249.69	379.195
1255.76	404.156
1261.83	430.144
1267.9	454.456
1273.97	466.808
1280.04	500.069
1286.11	542.371
1292.18	587.831
1298.25	605.349
1304.31	680.799
1310.38	741.98
1316.45	838.936
1322.52	890.536
1328.59	974.313
1334.66	1036.51
1340.73	1033.74
1346.8	1055.36
1352.87	1016.9
1358.94	966.131
1365.01	888.89
1371.08	830.919
1377.15	761.548
1383.21	705.45
1389.28	649.235
1395.35	624.068
1401.42	554.09
1407.49	526.373
1413.56	527.893
1419.63	512.471
1425.7	477.502
1431.77	454.036
1437.84	464.32
1443.91	456.675
1449.98	448.254
1456.05	443.25
1462.11	448.173
1468.18	443.676
1474.25	440.475
1480.32	439.748
1486.39	450.989
1492.46	440.675
1498.53	437.045
1504.6	447.154
1510.67	445.624
1516.74	454.193
1522.81	488.825
1528.88	492.248
1534.95	507.28
1541.01	529.884
1547.08	568.919
1553.15	615.373
1559.22	676.891
1565.29	716.266
1571.36	770.957
1577.43	851.55
1583.5	895.317
1589.57	915.091
1595.64	925.401
1601.71	895.585
1607.78	857.361
1613.85	798.719
1619.91	706.602
1625.98	610.969
1632.05	521.191
1638.12	441.358
1644.19	368.831
1650.26	315.937
1656.33	276.766
1662.4	225.198
1668.47	193.284
1674.54	171.888
1680.61	150.185
1686.68	135.031
1692.75	129.749
1698.81	112.687
1704.88	105.667
1710.95	98.7842
1717.02	97.6588
1723.09	99.0035
1729.16	88.482
1735.23	89.7335
1741.3	85.3844
1747.37	80.5583
1753.44	80.273
1759.51	78.767
1765.58	79.4124
1771.65	82.1893
1777.71	81.6413
1783.78	71.2257
1789.85	75.8062
1795.92	75.1163
1801.99	77.194
1808.06	73.5847
1814.13	71.4411
1820.2	68.7953
1826.27	71.9017
1832.34	74.3104
1838.41	75.1426
1844.48	74.664
1850.55	75.4208
1856.61	74.6447
1862.68	70.322
1868.75	75.1922
1874.82	72.7137
1880.89	71.052
1886.96	69.7478
1893.03	75.4031
1899.1	72.179
1905.17	76.7361
1911.24	72.1833
1917.31	67.129
1923.38	70.4402
1929.45	66.2665
1935.51	69.7246
1941.58	71.8825
1947.65	78.4929
1953.72	67.8352
1959.79	76.7496
1965.86	70.2202
1971.93	69.9415
1978	68.5346
1984.07	67.1657
1990.14	75.5982
1996.21	67.8938
2000	72.6658