File: Example Data/Raman/CNT - TIM/Raytheon/Al foil/2010/07-02-10/Batch 13 - top.txt
400	86.3322
406.069	93.914
412.138	92.1834
418.208	92.6622
424.277	97.4191
430.346	87.25
436.415	89.9231
442.485	88.1257
448.554	87.1014
454.623	86.6137
460.692	84.8334
466.762	86.7189
472.831	79.8845
478.9	81.0057
484.969	77.7837
491.038	81.3371
497.108	71.3493
503.177	75.8995
509.246	78.5291
515.315	79.2706
521.385	80.1466
527.454	77.3431
533.523	71.9065
539.592	72.8398
545.661	75.96
551.731	75.37
557.8	74.3823
563.869	74.5725
569.938	75.6066
576.008	73.5617
582.077	84.4994
588.146	73.6323
594.215	86.3736
600.284	81.2574
606.354	78.8191
612.423	78.0711
618.492	81.3872
624.561	80.8945
630.631	76.2674
636.7	77.9119
642.769	87.641
648.838	86.5657
654.908	94.3467
660.977	98.2428
667.046	94.8032
673.115	96.1833
679.184	94.5363
685.254	87.6648
691.323	89.3431
697.392	95.4606
703.461	98.0106
709.531	93.1055
715.6	97.056
721.669	96.6979
727.738	100.628
733.807	95.9827
739.877	100.525
745.946	108.582
752.015	107.669
758.084	115.86
764.154	115.914
770.223	110.652
776.292	118.242
782.361	117.215
788.431	112.415
794.5	125.101
800.569	119.432
806.638	120.38
812.707	126.178
818.777	130.397
824.846	129.386
830.915	131.204
836.984	128.601
843.054	134.127
849.123	128.97
855.192	139.591
861.261	133.237
867.331	127.78
873.4	127.174
879.469	118.33
885.538	116.775
891.607	103.453
897.677	102.981
903.746	108.233
909.815	96.3681
915.884	99.2441
921.954	95.2119
928.023	84.9372
934.092	94.2522
940.161	90.1782
946.23	94.8925
952.3	97.8088
958.369	92.2495
964.438	94.8244
970.507	98.7411
976.577	91.756
982.646	93.6096
988.715	96.3541
994.784	103.911
1000.85	108.265
1006.92	109.508
1012.99	107
1019.06	110.867
1025.13	117.293
1031.2	121.868
1037.27	119.463
1043.34	117.266
1049.41	122.695
1055.48	129.614
1061.55	137.681
1067.61	139.396
1073.68	129.844
1079.75	144.537
1085.82	135.262
1091.89	144.913
1097.96	143.95
1104.03	147.848
1110.1	155.546
1116.17	159.63
1122.24	160.575
1128.31	162.046
1134.38	173.005
1140.45	181.503
1146.51	181.208
1152.58	185.126
1158.65	190.815
1164.72	188.044
1170.79	193.68
1176.86	193.672
1182.93	206.318
1189	203.334
1195.07	206.493
1201.14	206.051
1207.21	216.42
1213.28	222.993
1219.35	224.338
1225.41	219.085
1231.48	238.487
1237.55	252.704
1243.62	254.273
1249.69	272.474
1255.76	292.196
1261.83	295.451
1267.9	302.921
1273.97	338.51
1280.04	365.464
1286.11	384.069
1292.18	399.639
1298.25	450.962
1304.31	487.765
1310.38	530.043
1316.45	612.359
1322.52	649.345
1328.59	713.318
1334.66	770.56
1340.73	796.852
1346.8	821.302
1352.87	827.3
1358.94	809.978
1365.01	733.745
1371.08	680.322
1377.15	613.201
1383.21	577.48
1389.28	534.143
1395.35	480.367
1401.42	456.46
1407.49	459.77
1413.56	414.575
1419.63	386.199
1425.7	382.149
1431.77	366.429
1437.84	356.371
1443.91	340.134
1449.98	339.245
1456.05	338.722
1462.11	338.424
1468.18	341.907
1474.25	330.477
1480.32	343.999
1486.39	337.71
1492.46	329.591
1498.53	326.332
1504.6	335.721
1510.67	337.378
1516.74	341.596
1522.81	361.423
1528.88	377.541
1534.95	372.896
1541.01	382.782
1547.08	417.919
1553.15	478.42
1559.22	513.478
1565.29	533.004
1571.36	603.528
1577.43	627.144
1583.5	700.878
1589.57	723.821
1595.64	741.323
1601.71	728.886
1607.78	725.415
1613.85	695.361
1619.91	640.364
1625.98	558.115
1632.05	479.131
1638.12	388.896
1644.19	331.448
1650.26	277.87
1656.33	243.52
1662.4	200.765
1668.47	158.917
1674.54	137.864
1680.61	112.021
1686.68	101.649
1692.75	88.4131
1698.81	80.984
1704.88	75.3985
1710.95	69.0816
1717.02	62.9188
1723.09	61.426
1729.16	59.9491
1735.23	55.5075
1741.3	54.0541
1747.37	51.8791
1753.44	50.5185
1759.51	48.3292
1765.58	51.2473
1771.65	45.5037
1777.71	51.7553
1783.78	45.2788
1789.85	45.5273
1795.92	44.6538
1801.99	45.0205
1808.06	45.2037
1814.13	42.082
1820.2	43.6289
1826.27	45.2503
1832.34	46.5344
1838.41	46.6349
1844.48	52.5009
1850.55	42.4565
1856.61	47.9629
1862.68	43.9432
1868.75	53.0958
1874.82	41.6684
1880.89	45.3819
1886.96	43.129
1893.03	46.2112
1899.1	38.1885
1905.17	42.5245
1911.24	43.6835
1917.31	41.4308
1923.38	47.451
1929.45	48.8544
1935.51	43.9276
1941.58	39.5152
1947.65	44.2904
1953.72	45.2367
1959.79	41.7015
1965.86	45.7362
1971.93	44.7477
1978	47.3552
1984.07	44.9848
1990.14	48.1375
1996.21	46.2151
2000	44.9752