File: Example Data/Raman/CNT - TIM/Raytheon/Al foil/2010/06-23-10/Batch 12 a - top_2.txt
400	104.86
406.069	100.283
412.138	102.423
418.208	94.5674
424.277	93.6539
430.346	109.446
436.415	98.9363
442.485	100.306
448.554	99.5257
454.623	101.807
460.692	101.111
466.762	93.9038
472.831	91.7341
478.9	98.2797
484.969	84.4232
491.038	100.552
497.108	91.804
503.177	90.8847
509.246	82.0995
515.315	92.9908
521.385	93.2888
527.454	89.2134
533.523	79.4555
539.592	85
545.661	93.0132
551.731	90.9361
557.8	93.5688
563.869	97.5535
569.938	92.3888
576.008	91.6115
582.077	90.0334
588.146	87.8123
594.215	86.1218
600.284	94.998
606.354	88.3901
612.423	103.249
618.492	88.8754
624.561	96.8637
630.631	90.443
636.7	95.9215
642.769	86.7512
648.838	94.227
654.908	97.514
660.977	99.0086
667.046	116.866
673.115	112.432
679.184	102.835
685.254	102.121
691.323	97.9694
697.392	110.951
703.461	110.9
709.531	105.287
715.6	113.487
721.669	109.434
727.738	103.49
733.807	115.609
739.877	115.23
745.946	119.03
752.015	123.333
758.084	115.351
764.154	125.928
770.223	126.118
776.292	121.606
782.361	123.625
788.431	129.557
794.5	134.493
800.569	124.09
806.638	130.298
812.707	147.57
818.777	139.215
824.846	145.063
830.915	145.291
836.984	143.35
843.054	154.462
849.123	153.37
855.192	153.483
861.261	138.632
867.331	133.022
873.4	138.277
879.469	129.765
885.538	134.984
891.607	123.021
897.677	117.229
903.746	111.674
909.815	101.084
915.884	114.842
921.954	106.646
928.023	125.898
934.092	111.647
940.161	100.383
946.23	104.44
952.3	113.161
958.369	108.482
964.438	106.773
970.507	108.851
976.577	110.643
982.646	112.204
988.715	107.856
994.784	120.019
1000.85	118.316
1006.92	125.304
1012.99	124.456
1019.06	122.966
1025.13	131.926
1031.2	132.746
1037.27	146.624
1043.34	152.205
1049.41	150.406
1055.48	142.322
1061.55	147.631
1067.61	143.694
1073.68	151.18
1079.75	155.074
1085.82	167.029
1091.89	170.106
1097.96	171.081
1104.03	181.566
1110.1	178.665
1116.17	200.831
1122.24	191.559
1128.31	195.96
1134.38	212.734
1140.45	231.439
1146.51	221.42
1152.58	244.973
1158.65	228.303
1164.72	249.347
1170.79	248.991
1176.86	255.967
1182.93	270.369
1189	269.488
1195.07	263.73
1201.14	277.854
1207.21	276.733
1213.28	275.633
1219.35	277.076
1225.41	292.854
1231.48	311.842
1237.55	326.132
1243.62	328.691
1249.69	366.321
1255.76	369.841
1261.83	389.869
1267.9	412.18
1273.97	434.653
1280.04	463.583
1286.11	490.64
1292.18	515.139
1298.25	559.667
1304.31	600.985
1310.38	669.22
1316.45	708.321
1322.52	745.68
1328.59	813.311
1334.66	798.414
1340.73	845.946
1346.8	859.738
1352.87	816.251
1358.94	797.058
1365.01	771.158
1371.08	738.554
1377.15	691.286
1383.21	644.57
1389.28	615.076
1395.35	550.568
1401.42	541.093
1407.49	518.361
1413.56	484.19
1419.63	456.542
1425.7	454.094
1431.77	445.441
1437.84	441.799
1443.91	415.932
1449.98	401.434
1456.05	402.98
1462.11	394.498
1468.18	399.539
1474.25	403
1480.32	408.906
1486.39	382.015
1492.46	402.539
1498.53	383.741
1504.6	395.094
1510.67	396.449
1516.74	403.742
1522.81	423.414
1528.88	414.185
1534.95	435.47
1541.01	453.4
1547.08	463.153
1553.15	504.519
1559.22	558.355
1565.29	574.878
1571.36	625.723
1577.43	689.407
1583.5	748.081
1589.57	793.178
1595.64	822.064
1601.71	831.488
1607.78	806.65
1613.85	756.233
1619.91	660.611
1625.98	566.569
1632.05	477.442
1638.12	413.838
1644.19	337.493
1650.26	296.625
1656.33	262.823
1662.4	216.689
1668.47	185.585
1674.54	156.698
1680.61	136.797
1686.68	126.659
1692.75	108.1
1698.81	103.535
1704.88	93.0123
1710.95	91.2604
1717.02	81.6954
1723.09	77.9762
1729.16	78.5137
1735.23	75.7359
1741.3	78.22
1747.37	72.746
1753.44	64.679
1759.51	69.8053
1765.58	58.2404
1771.65	66.6545
1777.71	67.4268
1783.78	66.999
1789.85	63.7012
1795.92	64.1947
1801.99	59.1716
1808.06	57.346
1814.13	60.7915
1820.2	56.5487
1826.27	60.9723
1832.34	63.7883
1838.41	67.6176
1844.48	59.1353
1850.55	59.7756
1856.61	64.7025
1862.68	62.2533
1868.75	59.6372
1874.82	55.7706
1880.89	56.4645
1886.96	58.3734
1893.03	69.9919
1899.1	60.1493
1905.17	56.0094
1911.24	59
1917.31	57.0586
1923.38	59.0145
1929.45	64.1208
1935.51	60.401
1941.58	59.404
1947.65	58.7271
1953.72	56.4432
1959.79	58.3118
1965.86	49.2691
1971.93	64.9069
1978	63.2939
1984.07	63.3738
1990.14	60.2261
1996.21	55.6655
2000	59.7591