File: Example Data/Raman/CNT - TIM/Raytheon/Al foil/2010/06-23-10/Batch 12 a - bottom_1.txt
400	88.6886
406.069	89.3893
412.138	87.3774
418.208	86.7378
424.277	86.9118
430.346	83.7429
436.415	86.4607
442.485	82.97
448.554	84.798
454.623	88.767
460.692	82.777
466.762	77.615
472.831	88.7533
478.9	69.7509
484.969	88.3649
491.038	84.5655
497.108	69.2328
503.177	74.782
509.246	72.9871
515.315	69.3561
521.385	64.0406
527.454	69.972
533.523	66.3782
539.592	77.158
545.661	78.2001
551.731	74.0613
557.8	66.0478
563.869	72.5393
569.938	79.2229
576.008	80.6721
582.077	83.7656
588.146	80.0277
594.215	69.4945
600.284	71.1657
606.354	81.5059
612.423	82.8138
618.492	77.358
624.561	91.0139
630.631	95.173
636.7	84.9607
642.769	81.8289
648.838	84.9813
654.908	85.6582
660.977	89.6688
667.046	94.3798
673.115	82.3143
679.184	87.6594
685.254	96.863
691.323	85.0613
697.392	99.2473
703.461	94.5757
709.531	91.4281
715.6	92.8019
721.669	95.1995
727.738	92.9987
733.807	95.2145
739.877	103.611
745.946	104.661
752.015	115.775
758.084	109.61
764.154	98.3828
770.223	116.131
776.292	120.878
782.361	116.069
788.431	120.823
794.5	112.355
800.569	118.596
806.638	124.985
812.707	127.194
818.777	115.992
824.846	132.018
830.915	131.642
836.984	129.966
843.054	138.029
849.123	130.451
855.192	130.082
861.261	130.709
867.331	121.48
873.4	121.019
879.469	105.823
885.538	118.635
891.607	115.136
897.677	107.562
903.746	98.9233
909.815	96.5046
915.884	97.7633
921.954	97.8686
928.023	88.7553
934.092	93.4915
940.161	89.8151
946.23	94.9287
952.3	95.1607
958.369	92.5091
964.438	100.979
970.507	98.5217
976.577	99.0562
982.646	97.5277
988.715	101.468
994.784	99.1048
1000.85	107.791
1006.92	104.263
1012.99	118.562
1019.06	105.186
1025.13	111.798
1031.2	118.136
1037.27	128.418
1043.34	129.69
1049.41	120.146
1055.48	136.678
1061.55	129.494
1067.61	144.628
1073.68	142.049
1079.75	141.495
1085.82	137.313
1091.89	144.229
1097.96	151.233
1104.03	152.767
1110.1	153.701
1116.17	157.514
1122.24	163.537
1128.31	170.32
1134.38	171.818
1140.45	192.093
1146.51	201.033
1152.58	191.261
1158.65	195.39
1164.72	212.517
1170.79	212.97
1176.86	209.738
1182.93	216.918
1189	218.053
1195.07	216.894
1201.14	221.949
1207.21	231.123
1213.28	231.839
1219.35	237.109
1225.41	246.338
1231.48	255.756
1237.55	277.053
1243.62	276.537
1249.69	284.596
1255.76	305.631
1261.83	318.605
1267.9	332.395
1273.97	359.851
1280.04	390.2
1286.11	412.802
1292.18	439.466
1298.25	449.898
1304.31	500.428
1310.38	529.385
1316.45	578.07
1322.52	677.938
1328.59	697.801
1334.66	764.413
1340.73	797.767
1346.8	833.174
1352.87	817.306
1358.94	773.972
1365.01	760.745
1371.08	717.355
1377.15	650.583
1383.21	597.48
1389.28	545.649
1395.35	512.62
1401.42	468.662
1407.49	466.94
1413.56	424.508
1419.63	413.723
1425.7	389.531
1431.77	383.572
1437.84	369.06
1443.91	360.016
1449.98	358.5
1456.05	349.91
1462.11	359.397
1468.18	356.905
1474.25	343.349
1480.32	352.249
1486.39	341.831
1492.46	350.889
1498.53	331.561
1504.6	349.351
1510.67	348.644
1516.74	349.305
1522.81	369.195
1528.88	382.027
1534.95	391.518
1541.01	418.176
1547.08	423.815
1553.15	467.88
1559.22	524.45
1565.29	573.713
1571.36	588.888
1577.43	692.272
1583.5	735.033
1589.57	751.425
1595.64	799.233
1601.71	800.349
1607.78	766.808
1613.85	728.887
1619.91	670.538
1625.98	574.581
1632.05	506.229
1638.12	426.918
1644.19	350.148
1650.26	288.56
1656.33	236.265
1662.4	195.07
1668.47	161.685
1674.54	147.499
1680.61	124.671
1686.68	112.011
1692.75	94.7105
1698.81	87.6605
1704.88	78.8042
1710.95	71.019
1717.02	68.0038
1723.09	66.6326
1729.16	66.3949
1735.23	57.7883
1741.3	59.9306
1747.37	54.2975
1753.44	52.0287
1759.51	56.6684
1765.58	48.7431
1771.65	52.8271
1777.71	50.5834
1783.78	49.7015
1789.85	51.3847
1795.92	46.4696
1801.99	45.603
1808.06	48.2816
1814.13	44.8741
1820.2	53.5846
1826.27	47.7143
1832.34	54.8645
1838.41	47.198
1844.48	46.5398
1850.55	45.6961
1856.61	44.2918
1862.68	48.9679
1868.75	43.1896
1874.82	50.2298
1880.89	47.1084
1886.96	46.2051
1893.03	41.6204
1899.1	46.2114
1905.17	48.6271
1911.24	50.1999
1917.31	42.4486
1923.38	47.7753
1929.45	51.8132
1935.51	46.2126
1941.58	43.7121
1947.65	47.1785
1953.72	43.5745
1959.79	46.839
1965.86	42.1651
1971.93	43.9159
1978	47.9232
1984.07	44.2449
1990.14	48.8119
1996.21	48.2852
2000	53.5809