File: Example Data/Raman/CNT - TIM/Raytheon/Al foil/2010/06-23-10/Batch 12 b - bottom_1.txt
400	114.342
406.069	118.403
412.138	131.489
418.208	123.791
424.277	134.364
430.346	133.303
436.415	128.435
442.485	131.832
448.554	120.87
454.623	120.606
460.692	119.223
466.762	124.581
472.831	113.513
478.9	106.333
484.969	108.076
491.038	109.422
497.108	107.534
503.177	107.009
509.246	114.409
515.315	106.397
521.385	113.037
527.454	104.538
533.523	104.339
539.592	98.5602
545.661	101.92
551.731	103.563
557.8	96.0254
563.869	102.716
569.938	104.548
576.008	103.481
582.077	109.533
588.146	108.524
594.215	110.376
600.284	114.164
606.354	116.983
612.423	112.237
618.492	108.175
624.561	115.343
630.631	125.141
636.7	108.618
642.769	112.881
648.838	128.29
654.908	126.02
660.977	115.832
667.046	112.115
673.115	117.241
679.184	129.895
685.254	130.979
691.323	130.156
697.392	132.008
703.461	129.52
709.531	129.749
715.6	134.24
721.669	128.067
727.738	134.842
733.807	133.854
739.877	122.74
745.946	136.327
752.015	158.768
758.084	142.963
764.154	137.506
770.223	148.706
776.292	150.795
782.361	156.567
788.431	154.422
794.5	157.135
800.569	167.348
806.638	162.875
812.707	164.656
818.777	176.272
824.846	156.36
830.915	158.122
836.984	171.039
843.054	165.093
849.123	165.678
855.192	168.609
861.261	162.471
867.331	159.894
873.4	152.183
879.469	147.597
885.538	150.518
891.607	161.646
897.677	145.699
903.746	146.625
909.815	140.489
915.884	140.693
921.954	133.696
928.023	138.631
934.092	127.983
940.161	130.93
946.23	132.094
952.3	134.337
958.369	135.798
964.438	125.34
970.507	141.381
976.577	131.819
982.646	128.863
988.715	142.301
994.784	146.709
1000.85	145.408
1006.92	148.99
1012.99	160.421
1019.06	157.054
1025.13	165.263
1031.2	171.647
1037.27	170.908
1043.34	188.605
1049.41	190.875
1055.48	186.764
1061.55	191.14
1067.61	193.817
1073.68	212.725
1079.75	207.26
1085.82	218.593
1091.89	221.882
1097.96	223.899
1104.03	229.816
1110.1	236.07
1116.17	246.477
1122.24	253.067
1128.31	263.243
1134.38	274.509
1140.45	278.066
1146.51	283.565
1152.58	323.324
1158.65	321.446
1164.72	328.109
1170.79	324.173
1176.86	332.775
1182.93	336.855
1189	349.571
1195.07	344.402
1201.14	355.61
1207.21	371.219
1213.28	355.314
1219.35	386.809
1225.41	398.617
1231.48	397.328
1237.55	417
1243.62	436.993
1249.69	461.506
1255.76	477.121
1261.83	516.166
1267.9	528.191
1273.97	541.277
1280.04	615.696
1286.11	630.568
1292.18	679.37
1298.25	716.399
1304.31	778.147
1310.38	832.807
1316.45	871.349
1322.52	955.873
1328.59	1001.42
1334.66	1043.86
1340.73	1051.79
1346.8	1068.01
1352.87	1048.06
1358.94	1008.14
1365.01	983.673
1371.08	902.44
1377.15	875.411
1383.21	822.367
1389.28	774.887
1395.35	698.459
1401.42	678.827
1407.49	650.32
1413.56	607.333
1419.63	576.999
1425.7	568.429
1431.77	536.428
1437.84	533.277
1443.91	571.927
1449.98	530.06
1456.05	511.278
1462.11	519.558
1468.18	501.519
1474.25	525.115
1480.32	510.25
1486.39	510.184
1492.46	506.101
1498.53	506.096
1504.6	498.524
1510.67	503.124
1516.74	550.258
1522.81	550.353
1528.88	556.364
1534.95	564.178
1541.01	595.624
1547.08	639.039
1553.15	662.933
1559.22	718.616
1565.29	735.173
1571.36	823.236
1577.43	873.103
1583.5	959.767
1589.57	1010.45
1595.64	1015.84
1601.71	1010.01
1607.78	991.15
1613.85	895.544
1619.91	830.48
1625.98	680.035
1632.05	589.143
1638.12	506.524
1644.19	433.178
1650.26	361.642
1656.33	319.508
1662.4	262.423
1668.47	227.125
1674.54	203.619
1680.61	178.803
1686.68	161.207
1692.75	141.727
1698.81	134.766
1704.88	119.915
1710.95	115.385
1717.02	108.334
1723.09	94.7438
1729.16	108.231
1735.23	101.296
1741.3	98.0873
1747.37	98.0134
1753.44	92.1776
1759.51	92.9929
1765.58	88.9656
1771.65	84.8526
1777.71	91.3336
1783.78	88.7692
1789.85	90.1228
1795.92	84.8613
1801.99	83.5574
1808.06	83.9265
1814.13	81.8716
1820.2	87.972
1826.27	83.5884
1832.34	81.0178
1838.41	80.1828
1844.48	84.3638
1850.55	87.6634
1856.61	77.6949
1862.68	81.9465
1868.75	84.5116
1874.82	78.2672
1880.89	76.2385
1886.96	81.0158
1893.03	74.8735
1899.1	70.9779
1905.17	80.5571
1911.24	78.8222
1917.31	78.1153
1923.38	80.8406
1929.45	83.8754
1935.51	81.4541
1941.58	80.8636
1947.65	77
1953.72	74.7164
1959.79	87.3969
1965.86	82.3914
1971.93	77.1652
1978	84.8156
1984.07	80.7588
1990.14	74.6476
1996.21	80.9531
2000	92.1947