File: Example Data/Raman/CNT - TIM/Raytheon/Al foil/2010/06-23-10/Batch 12 - top_3.txt
400	103.452
406.069	119.691
412.138	117.267
418.208	123.72
424.277	114.743
430.346	115.699
436.415	120.935
442.485	115.223
448.554	119.293
454.623	114.555
460.692	112.444
466.762	112.533
472.831	114.154
478.9	112.276
484.969	109.365
491.038	94.0713
497.108	99.0428
503.177	104.579
509.246	96.3313
515.315	100.041
521.385	112.708
527.454	105.148
533.523	97.9734
539.592	94.2777
545.661	100.44
551.731	107.992
557.8	97.1682
563.869	95.0472
569.938	96.7539
576.008	102.219
582.077	106.166
588.146	107.17
594.215	107.82
600.284	100.404
606.354	102.437
612.423	104.24
618.492	103.659
624.561	106.836
630.631	108.594
636.7	111.627
642.769	117.974
648.838	109.728
654.908	111.241
660.977	120.699
667.046	120.601
673.115	118.74
679.184	111.832
685.254	122.78
691.323	119.371
697.392	111.622
703.461	120.725
709.531	122.869
715.6	123.821
721.669	128.834
727.738	131.327
733.807	128.303
739.877	121.87
745.946	137.485
752.015	125.623
758.084	144.166
764.154	141.199
770.223	144.719
776.292	124.042
782.361	131.402
788.431	151.291
794.5	141.996
800.569	137.687
806.638	157.24
812.707	157.995
818.777	153.94
824.846	146.784
830.915	165.993
836.984	160.378
843.054	168.186
849.123	164.659
855.192	163.16
861.261	168.35
867.331	148.894
873.4	145.781
879.469	137.309
885.538	144.867
891.607	139.948
897.677	140.358
903.746	127.184
909.815	123.436
915.884	129.035
921.954	121.232
928.023	120.762
934.092	117.511
940.161	131.119
946.23	119.964
952.3	117.134
958.369	128.149
964.438	123.503
970.507	121.474
976.577	125.341
982.646	124.626
988.715	122.208
994.784	133.252
1000.85	142.675
1006.92	141.304
1012.99	154.843
1019.06	153.44
1025.13	160.451
1031.2	155.625
1037.27	164.022
1043.34	171.802
1049.41	170.542
1055.48	178.667
1061.55	167.669
1067.61	172.65
1073.68	184.09
1079.75	193.333
1085.82	191.378
1091.89	199.67
1097.96	198.899
1104.03	211.845
1110.1	206.28
1116.17	219.152
1122.24	235.153
1128.31	227.8
1134.38	247.268
1140.45	246.676
1146.51	261.687
1152.58	258.844
1158.65	262.348
1164.72	262.515
1170.79	268.697
1176.86	270.595
1182.93	271.329
1189	291.207
1195.07	282.372
1201.14	286.381
1207.21	294.535
1213.28	303.29
1219.35	320.389
1225.41	328.594
1231.48	325.081
1237.55	345.969
1243.62	369.115
1249.69	377.526
1255.76	380.456
1261.83	430.75
1267.9	447.302
1273.97	436.419
1280.04	495.828
1286.11	521.305
1292.18	562.119
1298.25	626.952
1304.31	661.09
1310.38	715.981
1316.45	823.181
1322.52	862.983
1328.59	917.793
1334.66	969.922
1340.73	1035.43
1346.8	1036.28
1352.87	1008.31
1358.94	945.573
1365.01	916.763
1371.08	861.612
1377.15	796.892
1383.21	735.923
1389.28	663.972
1395.35	643.604
1401.42	591.2
1407.49	570.177
1413.56	537.524
1419.63	528.323
1425.7	505.786
1431.77	481.332
1437.84	473.52
1443.91	478.05
1449.98	479.837
1456.05	460.205
1462.11	458.265
1468.18	461.885
1474.25	454.142
1480.32	462.83
1486.39	447.005
1492.46	454.169
1498.53	471.237
1504.6	459.392
1510.67	466.88
1516.74	494.564
1522.81	477.468
1528.88	536.735
1534.95	546.283
1541.01	568.974
1547.08	606.218
1553.15	665.381
1559.22	739.782
1565.29	788.502
1571.36	855.233
1577.43	899.951
1583.5	964.408
1589.57	1017.95
1595.64	1028.94
1601.71	997.537
1607.78	964.586
1613.85	891.139
1619.91	815.732
1625.98	710.436
1632.05	589.153
1638.12	512.382
1644.19	419.137
1650.26	349.129
1656.33	301.121
1662.4	256.391
1668.47	220.246
1674.54	183.621
1680.61	158.974
1686.68	138.086
1692.75	132.432
1698.81	123.62
1704.88	113.387
1710.95	106.749
1717.02	101.987
1723.09	91.1004
1729.16	103.82
1735.23	94.9041
1741.3	87.938
1747.37	83.9206
1753.44	84.2255
1759.51	84.0384
1765.58	85.7588
1771.65	80.5217
1777.71	77.7625
1783.78	79.6174
1789.85	81.4496
1795.92	80.5838
1801.99	82.0792
1808.06	76.403
1814.13	80.3498
1820.2	79.6088
1826.27	80.792
1832.34	74.8636
1838.41	79.9083
1844.48	79.8281
1850.55	78.1033
1856.61	82.0902
1862.68	76.8676
1868.75	75.2368
1874.82	74.031
1880.89	72.4859
1886.96	69.3098
1893.03	85.1238
1899.1	77.3733
1905.17	75.1212
1911.24	77.1109
1917.31	77.3689
1923.38	77.5471
1929.45	75.7656
1935.51	73.3769
1941.58	75.1364
1947.65	73.0973
1953.72	73.3616
1959.79	70.7318
1965.86	76.5199
1971.93	72.2613
1978	71.147
1984.07	78.2809
1990.14	77.4834
1996.21	77.7617
2000	76.7426