File: Example Data/Raman/CNT - TIM/Raytheon/Al foil/2010/06-23-10/Batch 12 - bottom_2.txt
400	113.294
406.069	109.955
412.138	111.8
418.208	109.188
424.277	117.673
430.346	105.805
436.415	108.526
442.485	104.889
448.554	107.524
454.623	102.342
460.692	107.664
466.762	100.797
472.831	111.284
478.9	106.13
484.969	97.4374
491.038	99.3195
497.108	97.8786
503.177	91.3926
509.246	95.394
515.315	86.1689
521.385	97.1098
527.454	89.5969
533.523	92.4971
539.592	89.8462
545.661	91.2934
551.731	92.0613
557.8	93.423
563.869	102.315
569.938	94.7227
576.008	97.7976
582.077	97.4657
588.146	81.9057
594.215	94.3616
600.284	102.796
606.354	89.0616
612.423	102.244
618.492	91.7744
624.561	100.3
630.631	102.982
636.7	101.255
642.769	105.052
648.838	115.466
654.908	107.546
660.977	110.34
667.046	113.53
673.115	105.305
679.184	109.781
685.254	115.703
691.323	120.015
697.392	110.727
703.461	120.382
709.531	118.144
715.6	108.823
721.669	121.568
727.738	119.994
733.807	122.211
739.877	126.548
745.946	116.921
752.015	119.349
758.084	127.389
764.154	139.62
770.223	129.758
776.292	135.909
782.361	139.456
788.431	137.637
794.5	145.776
800.569	150.927
806.638	153.079
812.707	151.134
818.777	142.262
824.846	140.054
830.915	145.112
836.984	156.198
843.054	155.768
849.123	153.604
855.192	151.155
861.261	156.906
867.331	148.989
873.4	142.497
879.469	130.395
885.538	129.017
891.607	134.333
897.677	134.918
903.746	125.697
909.815	113.45
915.884	112.789
921.954	118.545
928.023	117.675
934.092	123.078
940.161	117.535
946.23	115.477
952.3	109.87
958.369	119.14
964.438	123.454
970.507	113.988
976.577	116.096
982.646	127.146
988.715	117.162
994.784	116.801
1000.85	125.114
1006.92	130.564
1012.99	147.72
1019.06	141.565
1025.13	149.411
1031.2	148.409
1037.27	149.47
1043.34	153.784
1049.41	148.021
1055.48	171.644
1061.55	175.286
1067.61	167.261
1073.68	162.068
1079.75	172.039
1085.82	176.354
1091.89	184.001
1097.96	189.7
1104.03	187.348
1110.1	192.701
1116.17	197.189
1122.24	203.984
1128.31	220.141
1134.38	209.466
1140.45	216.586
1146.51	238.585
1152.58	248.695
1158.65	253.609
1164.72	250.806
1170.79	253.499
1176.86	256.43
1182.93	267.823
1189	276.076
1195.07	281.929
1201.14	275.934
1207.21	287.58
1213.28	301.715
1219.35	303.429
1225.41	298.977
1231.48	314.259
1237.55	329.909
1243.62	345.673
1249.69	355.248
1255.76	371.525
1261.83	398.609
1267.9	413.044
1273.97	428.978
1280.04	464.282
1286.11	493.331
1292.18	522.308
1298.25	569.667
1304.31	611.018
1310.38	644.414
1316.45	705.936
1322.52	769.921
1328.59	822.176
1334.66	842.349
1340.73	871.416
1346.8	874.767
1352.87	877.266
1358.94	823.93
1365.01	790.523
1371.08	737.573
1377.15	698.481
1383.21	660.835
1389.28	613.549
1395.35	553.199
1401.42	541.64
1407.49	523.331
1413.56	498.476
1419.63	472.858
1425.7	457.884
1431.77	456.601
1437.84	421.487
1443.91	420.966
1449.98	398.713
1456.05	398.613
1462.11	416.58
1468.18	422.51
1474.25	407.333
1480.32	416.162
1486.39	420
1492.46	407.91
1498.53	422.03
1504.6	402.63
1510.67	425.811
1516.74	441.439
1522.81	419.666
1528.88	438.053
1534.95	444.498
1541.01	489.331
1547.08	514.411
1553.15	546.876
1559.22	586.71
1565.29	643.967
1571.36	685.362
1577.43	761.011
1583.5	797.307
1589.57	854.087
1595.64	846.408
1601.71	832.19
1607.78	793.443
1613.85	748.104
1619.91	660.716
1625.98	577.283
1632.05	508.45
1638.12	414.473
1644.19	361.996
1650.26	295.436
1656.33	254.772
1662.4	218.878
1668.47	196.958
1674.54	161.834
1680.61	141.459
1686.68	132.035
1692.75	116.839
1698.81	104.128
1704.88	101.05
1710.95	92.1192
1717.02	89.1098
1723.09	85.5185
1729.16	81.8591
1735.23	79.1305
1741.3	80.8642
1747.37	76.7663
1753.44	72.668
1759.51	71.6824
1765.58	69.9625
1771.65	71.342
1777.71	71.8975
1783.78	65.612
1789.85	72.0687
1795.92	69.7198
1801.99	65.0162
1808.06	67.6349
1814.13	70.4223
1820.2	70.0286
1826.27	69.7542
1832.34	76.3433
1838.41	71.3928
1844.48	64.0267
1850.55	65.3472
1856.61	64.3379
1862.68	72.1298
1868.75	71.2365
1874.82	67.9186
1880.89	58.244
1886.96	64.3809
1893.03	63.8218
1899.1	69.8233
1905.17	64.0116
1911.24	63.7556
1917.31	65.7128
1923.38	61.5326
1929.45	60.5165
1935.51	61.9325
1941.58	60.4596
1947.65	68.101
1953.72	59.9612
1959.79	66.2041
1965.86	64.5474
1971.93	70.2342
1978	70.3574
1984.07	62.9798
1990.14	66.4025
1996.21	69.0947
2000	58.9208