File: Example Data/Raman/CNT - TIM/Raytheon/Al foil/2011/03-21-11/Al - 8micron - B3-bottom_1.txt
300	122.806
306.533	166.393
313.067	182.893
319.6	183.34
326.134	154.167
332.667	165.91
339.201	157.865
345.734	161.526
352.267	154.109
358.801	156.911
365.334	152.094
371.868	159.183
378.401	141.506
384.935	150.645
391.468	127.397
398.002	138.83
404.535	138.407
411.068	127.257
417.602	133.187
424.135	147.369
430.669	130.3
437.202	145.04
443.736	123.251
450.269	130.744
456.802	129.709
463.336	122.469
469.869	112.337
476.403	101.142
482.936	111.653
489.47	100.249
496.003	106.886
502.536	88.2204
509.07	80.6073
515.603	88.25
522.137	82.9284
528.67	84.2418
535.204	85.37
541.737	90.0843
548.271	92.5514
554.804	78.5972
561.337	90.8567
567.871	103.434
574.404	99.8408
580.938	95.7686
587.471	101.403
594.005	109.896
600.538	101.194
607.071	97.2932
613.605	108.084
620.138	115.549
626.672	112.419
633.205	109.305
639.739	133.881
646.272	117.985
652.806	121.04
659.339	140.798
665.872	135.175
672.406	121.288
678.939	135.424
685.473	144.7
692.006	142.265
698.54	141.025
705.073	129.93
711.606	145.618
718.14	155.914
724.673	158.747
731.207	154.102
737.74	162.693
744.274	173.384
750.807	177.665
757.341	175.661
763.874	180.62
770.407	193.517
776.941	196.382
783.474	185.438
790.008	191.418
796.541	201.385
803.075	193.712
809.608	215.822
816.141	221.441
822.675	212.013
829.208	226.692
835.742	227.9
842.275	233.799
848.809	236.93
855.342	241.992
861.875	232.263
868.409	222.915
874.942	214.079
881.476	224.537
888.009	220.569
894.543	202.558
901.076	197.153
907.61	205.077
914.143	195.154
920.676	208.846
927.21	193.363
933.743	182.52
940.277	204.065
946.81	213.154
953.344	208.073
959.877	215.927
966.41	229.522
972.944	207.363
979.477	222.598
986.011	226.694
992.544	235.384
999.078	252.966
1005.61	263.164
1012.14	290.176
1018.68	276.737
1025.21	289.896
1031.74	322.478
1038.28	351.459
1044.81	333.691
1051.35	359.159
1057.88	380.757
1064.41	386.557
1070.95	395.592
1077.48	418.595
1084.01	432.466
1090.55	432.883
1097.08	464.3
1103.61	489.135
1110.15	504.976
1116.68	505.63
1123.21	524.024
1129.75	555.198
1136.28	560.077
1142.81	610.568
1149.35	610.215
1155.88	639.684
1162.41	668.608
1168.95	694.205
1175.48	705.649
1182.01	711.987
1188.55	745.152
1195.08	758.156
1201.61	785.261
1208.15	787.864
1214.68	816.511
1221.21	843.838
1227.75	884.333
1234.28	923.241
1240.81	974.615
1247.35	1036.21
1253.88	1066.17
1260.42	1153.56
1266.95	1213.92
1273.48	1261.11
1280.02	1349.13
1286.55	1435.55
1293.08	1547.44
1299.62	1634.11
1306.15	1773.98
1312.68	1937.75
1319.22	2099.46
1325.75	2271.62
1332.28	2447.81
1338.82	2568.38
1345.35	2619.21
1351.88	2640.84
1358.42	2594.83
1364.95	2532.55
1371.48	2387.98
1378.02	2250.57
1384.55	2122.94
1391.08	2020.23
1397.62	1887.21
1404.15	1784.92
1410.68	1699.97
1417.22	1622.77
1423.75	1581.32
1430.28	1540.88
1436.82	1490.3
1443.35	1469.88
1449.88	1435.48
1456.42	1437.89
1462.95	1406.37
1469.48	1414.61
1476.02	1433.34
1482.55	1417.09
1489.09	1438.04
1495.62	1454.13
1502.15	1435.68
1508.69	1442.56
1515.22	1457.49
1521.75	1495.6
1528.29	1548.2
1534.82	1574.93
1541.35	1645.79
1547.89	1763.67
1554.42	1876.26
1560.95	2038.8
1567.49	2172.42
1574.02	2338.84
1580.55	2536.9
1587.09	2658.23
1593.62	2758.56
1600.15	2748.93
1606.69	2679.38
1613.22	2520.67
1619.75	2286.34
1626.29	2057.6
1632.82	1786.37
1639.35	1482.95
1645.89	1265.88
1652.42	1056.46
1658.95	879.229
1665.49	747.694
1672.02	612.556
1678.55	521.13
1685.09	450.206
1691.62	396.153
1698.16	344.12
1704.69	318.669
1711.22	301.886
1717.76	267.766
1724.29	248.311
1730.82	234.114
1737.36	222.786
1743.89	222.171
1750.42	209.056
1756.96	202.513
1763.49	196.404
1770.02	194.759
1776.56	194.864
1783.09	185.51
1789.62	198.217
1796.16	179.21
1802.69	190.67
1809.22	179.907
1815.76	183.607
1822.29	184.995
1828.82	180.192
1835.36	180.935
1841.89	190.201
1848.42	183.215
1854.96	188.033
1861.49	170.94
1868.02	175.254
1874.56	185.452
1881.09	183.424
1887.62	173.95
1894.16	195.034
1900.69	182.493
1907.23	183.874
1913.76	185.006
1920.29	173.738
1926.83	179.166
1933.36	182.539
1939.89	182.307
1946.43	185.367
1952.96	168.093
1959.49	175.933
1966.03	187.31
1972.56	185.622
1979.09	180.473
1985.63	185.305
1992.16	513.747
1998.69	204.298
2000	201.263