File: Example Data/Raman/CNT - TIM/Raytheon/Al foil/2011/03-21-11/Al - B31 -  bottom.txt
300	-14.9451
306.533	14.3915
313.067	34.4909
319.6	25.6999
326.134	5.88008
332.667	14.547
339.201	14.8505
345.734	17.6435
352.267	13.4387
358.801	10.4207
365.334	3.5486
371.868	19.5641
378.401	-2.56397
384.935	1.77558
391.468	-9.31994
398.002	-21.5027
404.535	-0.421405
411.068	-8.73225
417.602	-10.3782
424.135	-20.4458
430.669	-2.0355
437.202	-18.4105
443.736	-9.69462
450.269	-15.3277
456.802	-16.1795
463.336	-28.2439
469.869	-31.5593
476.403	-29.1065
482.936	-30.1355
489.47	-39.194
496.003	-35.1644
502.536	-62.3908
509.07	-71.9732
515.603	-57.7059
522.137	-63.5818
528.67	-74.2194
535.204	-65.5881
541.737	-66.3621
548.271	-60.2254
554.804	-60.3087
561.337	-75.0706
567.871	-53.482
574.404	-43.2981
580.938	-52.1274
587.471	-61.25
594.005	-35.5538
600.538	-43.4208
607.071	-33.3251
613.605	-44.4267
620.138	-32.0207
626.672	-35.0807
633.205	-30.8936
639.739	-32.4109
646.272	-25.672
652.806	-16.3072
659.339	-8.50436
665.872	-22.8497
672.406	-7.15381
678.939	-10.6508
685.473	-1.75
692.006	-5.7333
698.54	-28.4562
705.073	-14.1851
711.606	-11.7455
718.14	-2.68316
724.673	-0.327563
731.207	8.3822
737.74	10.135
744.274	12.5146
750.807	27.0902
757.341	36.9642
763.874	37.5284
770.407	33.4269
776.941	42.92
783.474	46.7031
790.008	51.963
796.541	41.9669
803.075	50.0905
809.608	79.2827
816.141	60.233
822.675	71.1456
829.208	80.3543
835.742	94.9491
842.275	100.577
848.809	88.2228
855.342	87.8357
861.875	95.0731
868.409	85.7303
874.942	69.5454
881.476	65.1836
888.009	69.623
894.543	67.4017
901.076	59.5
907.61	54.5418
914.143	59.4725
920.676	58.9092
927.21	51.1237
933.743	43.0047
940.277	39.3826
946.81	63.7074
953.344	54.06
959.877	54.2971
966.41	78.1156
972.944	61.4854
979.477	81.852
986.011	85.7151
992.544	96.6031
999.078	97.1997
1005.61	124.285
1012.14	142.411
1018.68	156.698
1025.21	179.359
1031.74	197.679
1038.28	199.576
1044.81	206.042
1051.35	251.441
1057.88	249.626
1064.41	254.531
1070.95	285.505
1077.48	317.507
1084.01	302.121
1090.55	354.999
1097.08	364.078
1103.61	385.3
1110.15	406.073
1116.68	450.221
1123.21	476.851
1129.75	490.418
1136.28	550.381
1142.81	600.402
1149.35	649.873
1155.88	717.745
1162.41	764.08
1168.95	785.005
1175.48	836.785
1182.01	860.021
1188.55	886.165
1195.08	880.169
1201.61	901.598
1208.15	951.52
1214.68	979.817
1221.21	997.562
1227.75	1058.53
1234.28	1133.99
1240.81	1172.73
1247.35	1223.53
1253.88	1310.54
1260.42	1389.14
1266.95	1469.47
1273.48	1575.15
1280.02	1701.38
1286.55	1838.76
1293.08	1987.28
1299.62	2124.65
1306.15	2333.27
1312.68	2523.32
1319.22	2701.71
1325.75	2871.34
1332.28	2987.98
1338.82	3106.73
1345.35	3109.13
1351.88	3114.07
1358.42	3071.5
1364.95	2968.04
1371.48	2829.52
1378.02	2715.08
1384.55	2541.17
1391.08	2388.82
1397.62	2254.98
1404.15	2108.32
1410.68	1999.99
1417.22	1899.65
1423.75	1805.9
1430.28	1773.06
1436.82	1725.16
1443.35	1688.87
1449.88	1652.62
1456.42	1625.56
1462.95	1598.6
1469.48	1575.83
1476.02	1588.3
1482.55	1598.77
1489.09	1593.39
1495.62	1602.49
1502.15	1592.73
1508.69	1602.74
1515.22	1599.36
1521.75	1636.99
1528.29	1672.14
1534.82	1708.36
1541.35	1790.12
1547.89	1835.02
1554.42	1951.46
1560.95	2115.88
1567.49	2270.86
1574.02	2490.31
1580.55	2703.7
1587.09	2973.76
1593.62	3243.07
1600.15	3391.5
1606.69	3457.11
1613.22	3314.41
1619.75	3031.2
1626.29	2589.96
1632.82	2118.77
1639.35	1718.89
1645.89	1421.16
1652.42	1186.45
1658.95	978.121
1665.49	781.511
1672.02	640.091
1678.55	508.55
1685.09	411.383
1691.62	332.314
1698.16	289.695
1704.69	229.21
1711.22	216.77
1717.76	187.525
1724.29	156.127
1730.82	147.402
1737.36	129.336
1743.89	119.424
1750.42	118.23
1756.96	101.785
1763.49	105.294
1770.02	88.0064
1776.56	90.6271
1783.09	86.4967
1789.62	75.2826
1796.16	75.0248
1802.69	74.0017
1809.22	65.0208
1815.76	80.8844
1822.29	66.6309
1828.82	59.2711
1835.36	64.0369
1841.89	72.768
1848.42	73.8347
1854.96	72.0447
1861.49	66.0986
1868.02	72.5003
1874.56	81.4975
1881.09	75.6954
1887.62	79.6103
1894.16	74.7415
1900.69	82.6277
1907.23	76.3881
1913.76	72.7895
1920.29	68.8614
1926.83	73.9565
1933.36	87.4967
1939.89	78.7403
1946.43	73.0505
1952.96	70.2416
1959.49	81.0636
1966.03	74.6208
1972.56	77.432
1979.09	86.5852
1985.63	77.3609
1992.16	91.4835
1998.69	81.7109
2000	87.7412