File: Example Data/Raman/CNT - TIM/Raytheon/Al foil/2011/03-21-11/Al - 8micron - B3 - MW - 5min - bottom_1.txt
300	20.848
306.533	49.5262
313.067	59.9776
319.6	51.9623
326.134	59.9751
332.667	55.6153
339.201	51.8012
345.734	41.9119
352.267	40.5646
358.801	33.6413
365.334	25.3198
371.868	13.232
378.401	26.4502
384.935	25.4798
391.468	15.4096
398.002	15.2131
404.535	3.12695
411.068	9.673
417.602	9.20905
424.135	10.1533
430.669	-0.986005
437.202	4.51942
443.736	-10.2379
450.269	-4.02547
456.802	-13.0499
463.336	-7.4182
469.869	-11.6769
476.403	-20.5903
482.936	-7.62126
489.47	-31.5211
496.003	-35.1703
502.536	-44.0231
509.07	-50.2187
515.603	-53.144
522.137	-60.7037
528.67	-39.5333
535.204	-53.402
541.737	-47.4012
548.271	-46.8945
554.804	-55.7872
561.337	-49.7797
567.871	-60.7414
574.404	-58.0205
580.938	-58.1529
587.471	-52.3594
594.005	-43.6009
600.538	-47.3081
607.071	-57.7908
613.605	-52.5652
620.138	-47.8227
626.672	-42.2108
633.205	-35.152
639.739	-41.5871
646.272	-41.6725
652.806	-32.1454
659.339	-33.649
665.872	-36.5628
672.406	-45.026
678.939	-32.217
685.473	-38.5438
692.006	-17.3439
698.54	-26.5324
705.073	-26.0083
711.606	-14.7866
718.14	-22.4925
724.673	-23.8551
731.207	-9.38741
737.74	-12.6247
744.274	-17.7466
750.807	-12.3699
757.341	6.2615
763.874	0.369528
770.407	11.4141
776.941	12.1828
783.474	8.65062
790.008	14.5365
796.541	14.3233
803.075	31.8442
809.608	33.8372
816.141	22.6024
822.675	25.5532
829.208	39.089
835.742	43.2901
842.275	34.9227
848.809	45.0975
855.342	41.0182
861.875	51.4277
868.409	38.6918
874.942	20.7044
881.476	20.5585
888.009	18.3326
894.543	12.411
901.076	28.591
907.61	12.9749
914.143	9.73671
920.676	4.00002
927.21	7.70798
933.743	14.054
940.277	1.99525
946.81	6.3684
953.344	-6.70845
959.877	-10.6976
966.41	-27.2689
972.944	-9.61053
979.477	-6.93893
986.011	-8.63687
992.544	-10.447
999.078	-0.950256
1005.61	1.33213
1012.14	-8.06903
1018.68	-15.8446
1025.21	-11.1701
1031.74	14.5783
1038.28	2.46951
1044.81	11.3428
1051.35	2.39612
1057.88	20.9435
1064.41	-4.71754
1070.95	11.3703
1077.48	4.21289
1084.01	19.9879
1090.55	4.98633
1097.08	9.00141
1103.61	9.10123
1110.15	15.2576
1116.68	19.4999
1123.21	4.32537
1129.75	2.93288
1136.28	24.8339
1142.81	22.4439
1149.35	51.7336
1155.88	55.4451
1162.41	44.4592
1168.95	66.228
1175.48	38.5017
1182.01	56.252
1188.55	49.6034
1195.08	76.9893
1201.61	68.1184
1208.15	91.916
1214.68	108.538
1221.21	108.939
1227.75	141.804
1234.28	148.133
1240.81	165.153
1247.35	229.7
1253.88	254.738
1260.42	307.677
1266.95	328.011
1273.48	389.611
1280.02	461.464
1286.55	529.542
1293.08	607.967
1299.62	713.391
1306.15	831.897
1312.68	981.425
1319.22	1087.47
1325.75	1257.79
1332.28	1340.45
1338.82	1434.55
1345.35	1476.55
1351.88	1465.15
1358.42	1384.28
1364.95	1247.63
1371.48	1119.53
1378.02	997.496
1384.55	852.023
1391.08	726.727
1397.62	603.701
1404.15	483.388
1410.68	420.533
1417.22	304.522
1423.75	259.568
1430.28	192.096
1436.82	158.468
1443.35	114.334
1449.88	84.8417
1456.42	53.9166
1462.95	36.002
1469.48	19.7175
1476.02	6.57815
1482.55	36.2265
1489.09	74.3723
1495.62	113.493
1502.15	160.672
1508.69	182.144
1515.22	239.026
1521.75	306.594
1528.29	361.221
1534.82	461.033
1541.35	578.381
1547.89	915.771
1554.42	822.913
1560.95	1036.96
1567.49	1163.89
1574.02	1341.48
1580.55	1530.25
1587.09	1685.5
1593.62	1761.93
1600.15	1773.7
1606.69	1736.47
1613.22	1637.25
1619.75	1381.22
1626.29	1170.39
1632.82	935.829
1639.35	729.094
1645.89	586.711
1652.42	423.9
1658.95	298.654
1665.49	207.601
1672.02	127.36
1678.55	93.8895
1685.09	45.6416
1691.62	19.0105
1698.16	9.92759
1704.69	17.7859
1711.22	19.3966
1717.76	-3.79541
1724.29	-3.97737
1730.82	9.18939
1737.36	-1.74095
1743.89	-0.254081
1750.42	11.7475
1756.96	6.68294
1763.49	13.6845
1770.02	16.8859
1776.56	-3.4348
1783.09	1.90203
1789.62	-1.90081
1796.16	-0.185619
1802.69	-7.10854
1809.22	-13.8642
1815.76	-9.93261
1822.29	-4.83725
1828.82	7.60209
1835.36	-4.07327
1841.89	-1.32857
1848.42	-2.47226
1854.96	-9.45247
1861.49	1.57992
1868.02	-1.14384
1874.56	-6.30751
1881.09	-2.36665
1887.62	-0.745391
1894.16	1.50587
1900.69	-9.33039
1907.23	-1.51634
1913.76	-15.782
1920.29	-1.37242
1926.83	-7.31
1933.36	-10.4859
1939.89	-7.62487
1946.43	-14.3981
1952.96	-13.5347
1959.49	-10.8198
1966.03	-0.0794324
1972.56	-1.20214
1979.09	9.95732
1985.63	-8.4428
1992.16	-0.420698
1998.69	-0.803581
2000	-14.7114