File: Example Data/Raman/CNT - TIM/Raytheon/Al foil/2011/03-21-11/Al - 8micron - B3_1.txt
300	365.944
306.533	386.228
313.067	386.502
319.6	403.391
326.134	390.778
332.667	381.772
339.201	391.227
345.734	368.364
352.267	372.931
358.801	381.867
365.334	380.808
371.868	356.607
378.401	375
384.935	378.759
391.468	361.769
398.002	369.297
404.535	379.753
411.068	363.972
417.602	361.616
424.135	368.092
430.669	356.986
437.202	355.5
443.736	354.659
450.269	347.558
456.802	353.047
463.336	339.14
469.869	338.876
476.403	330.821
482.936	317.983
489.47	317.055
496.003	310.293
502.536	302.041
509.07	296.834
515.603	303.293
522.137	310.271
528.67	315.968
535.204	302.337
541.737	295.472
548.271	298.475
554.804	284.476
561.337	316.974
567.871	304.75
574.404	322.245
580.938	310.992
587.471	309.156
594.005	309.122
600.538	304.493
607.071	311.464
613.605	321.656
620.138	317.771
626.672	333.219
633.205	333.357
639.739	343.731
646.272	325.203
652.806	333.267
659.339	336.298
665.872	344.763
672.406	343.769
678.939	342.271
685.473	333.95
692.006	348.898
698.54	348.3
705.073	358.431
711.606	355.481
718.14	359.36
724.673	366.051
731.207	361.787
737.74	371.965
744.274	378.462
750.807	394.745
757.341	379.607
763.874	387.877
770.407	373.369
776.941	413.283
783.474	398.842
790.008	402.293
796.541	411.088
803.075	422.628
809.608	409.092
816.141	424.416
822.675	432.347
829.208	427.832
835.742	427.02
842.275	442.806
848.809	456.897
855.342	459.127
861.875	452.848
868.409	430.628
874.942	428.859
881.476	426.037
888.009	426.171
894.543	414.333
901.076	415.102
907.61	416.647
914.143	416.25
920.676	391.993
927.21	419.164
933.743	401.768
940.277	424.163
946.81	406.39
953.344	420.383
959.877	425.983
966.41	430.853
972.944	435.441
979.477	444.346
986.011	445.979
992.544	448.735
999.078	468.539
1005.61	472.745
1012.14	497.841
1018.68	506.88
1025.21	511.319
1031.74	564.067
1038.28	561.158
1044.81	585.335
1051.35	600.266
1057.88	613.166
1064.41	617.368
1070.95	642.672
1077.48	656.574
1084.01	682.453
1090.55	685.741
1097.08	713.378
1103.61	731.105
1110.15	754.758
1116.68	777.438
1123.21	803.056
1129.75	811.072
1136.28	843.342
1142.81	881.31
1149.35	908.847
1155.88	938.79
1162.41	954.025
1168.95	993.84
1175.48	1001.37
1182.01	1026.27
1188.55	1065.06
1195.08	1101.88
1201.61	1072.77
1208.15	1145.45
1214.68	1174.81
1221.21	1214.09
1227.75	1241.99
1234.28	1311.99
1240.81	1340.3
1247.35	1404.75
1253.88	1466.16
1260.42	1531.58
1266.95	1620.77
1273.48	1726.71
1280.02	1819.93
1286.55	1921.47
1293.08	2068.79
1299.62	2225.65
1306.15	2401.81
1312.68	2605.27
1319.22	2873.75
1325.75	3066.84
1332.28	3316.9
1338.82	3476.88
1345.35	3550.8
1351.88	3583
1358.42	3484.67
1364.95	3326.79
1371.48	3145.43
1378.02	2981.63
1384.55	2767.68
1391.08	2590.99
1397.62	2433.8
1404.15	2304.47
1410.68	2199.34
1417.22	2079.39
1423.75	2013.26
1430.28	1981.36
1436.82	1934.97
1443.35	1879.89
1449.88	1873.58
1456.42	1841.36
1462.95	1840.94
1469.48	1816.78
1476.02	1834.74
1482.55	1819.01
1489.09	1829.85
1495.62	1826.4
1502.15	1858.17
1508.69	1857.64
1515.22	1892.02
1521.75	1910.46
1528.29	1968.74
1534.82	2043.4
1541.35	2126.87
1547.89	2289.77
1554.42	2374.71
1560.95	2594.65
1567.49	2750.35
1574.02	2996.39
1580.55	3237.07
1587.09	3414.17
1593.62	3493.45
1600.15	3553.32
1606.69	3464.61
1613.22	3255.88
1619.75	2971.38
1626.29	2619.54
1632.82	2261.85
1639.35	1893.91
1645.89	1646.56
1652.42	1393.34
1658.95	1184.37
1665.49	1001.96
1672.02	840.331
1678.55	762.538
1685.09	677.349
1691.62	619.004
1698.16	552.025
1704.69	521.626
1711.22	491.04
1717.76	463.379
1724.29	433.874
1730.82	425.597
1737.36	409.593
1743.89	405.11
1750.42	397.783
1756.96	378.196
1763.49	391.059
1770.02	373.203
1776.56	364.396
1783.09	347.548
1789.62	357.995
1796.16	360.649
1802.69	373.961
1809.22	365.362
1815.76	350.044
1822.29	353.968
1828.82	348.998
1835.36	342.294
1841.89	348.683
1848.42	361.557
1854.96	361.855
1861.49	342.16
1868.02	344.648
1874.56	345.463
1881.09	348.422
1887.62	338.467
1894.16	335.106
1900.69	343.193
1907.23	355.585
1913.76	350.427
1920.29	344.145
1926.83	347.519
1933.36	335.612
1939.89	341.279
1946.43	352.738
1952.96	353.292
1959.49	353.828
1966.03	347.581
1972.56	351.439
1979.09	334.076
1985.63	344.319
1992.16	338.583
1998.69	348.334
2000	339.639