File: Example Data/Raman/CNT - TIM/Raytheon/Al foil/2011/03-21-11/Al - 8micron - B3 - MW - 5min - top_1.txt
300	127.583
306.533	161.998
313.067	189.496
319.6	196.832
326.134	177.62
332.667	178.652
339.201	161.846
345.734	189.77
352.267	181.689
358.801	170.496
365.334	177.049
371.868	178.762
378.401	163.883
384.935	165.642
391.468	163.5
398.002	156.913
404.535	142.974
411.068	157.951
417.602	155.948
424.135	148.951
430.669	155.479
437.202	156.83
443.736	139.072
450.269	144.316
456.802	145.65
463.336	140.383
469.869	136.017
476.403	120.393
482.936	108.014
489.47	105.244
496.003	103.55
502.536	91.484
509.07	86.5134
515.603	87.415
522.137	81.4252
528.67	85.729
535.204	80.7657
541.737	86.5313
548.271	93.7079
554.804	96.4261
561.337	90.7161
567.871	94.9892
574.404	103.902
580.938	101.989
587.471	99.3744
594.005	128.096
600.538	102.149
607.071	108.303
613.605	119.22
620.138	124.123
626.672	128.272
633.205	124.267
639.739	128.36
646.272	136.312
652.806	120.584
659.339	137.42
665.872	137.037
672.406	129.961
678.939	141.333
685.473	151.7
692.006	150.855
698.54	149.225
705.073	147.672
711.606	133.701
718.14	163.642
724.673	155.116
731.207	144.582
737.74	162.86
744.274	173.296
750.807	165.156
757.341	184.179
763.874	192.226
770.407	190.492
776.941	190.115
783.474	176.415
790.008	210.517
796.541	204.109
803.075	218.314
809.608	202.721
816.141	583.773
822.675	237.547
829.208	228.846
835.742	237.402
842.275	240.511
848.809	236.56
855.342	262.418
861.875	241.223
868.409	236.009
874.942	219.97
881.476	217.463
888.009	212.557
894.543	218.497
901.076	219.67
907.61	214.936
914.143	208.578
920.676	218.365
927.21	214.118
933.743	229.998
940.277	230.377
946.81	216.001
953.344	219.143
959.877	223.725
966.41	236.534
972.944	234.686
979.477	263.138
986.011	255.848
992.544	266.562
999.078	281.718
1005.61	284.101
1012.14	322.568
1018.68	333.652
1025.21	354.18
1031.74	361.86
1038.28	389.578
1044.81	409.881
1051.35	432.293
1057.88	466.096
1064.41	448.988
1070.95	486.946
1077.48	528.693
1084.01	514.557
1090.55	532.839
1097.08	568.788
1103.61	557.074
1110.15	612.008
1116.68	624.773
1123.21	694.074
1129.75	700.929
1136.28	727.066
1142.81	791.622
1149.35	838.616
1155.88	872.329
1162.41	892.823
1168.95	953.476
1175.48	988.291
1182.01	1006.22
1188.55	1042.35
1195.08	1079.24
1201.61	1075.37
1208.15	1116.13
1214.68	1190.94
1221.21	1228.75
1227.75	1261.02
1234.28	1371.76
1240.81	1394.22
1247.35	1457.57
1253.88	1536.01
1260.42	1641.9
1266.95	1732.08
1273.48	1825.01
1280.02	1956.57
1286.55	2075.52
1293.08	2209.78
1299.62	2369.6
1306.15	2549.91
1312.68	2696.34
1319.22	2886.66
1325.75	3048.81
1332.28	3213.66
1338.82	3299.82
1345.35	3344.31
1351.88	3345.46
1358.42	3247.18
1364.95	3142.64
1371.48	3057.83
1378.02	2915.96
1384.55	2745.44
1391.08	2582.39
1397.62	2470.59
1404.15	2338.84
1410.68	2252.13
1417.22	2162.09
1423.75	2097.46
1430.28	2020.87
1436.82	1969.67
1443.35	1950.92
1449.88	1903.39
1456.42	1898.55
1462.95	1855.46
1469.48	1857.07
1476.02	1859.21
1482.55	1900.62
1489.09	1891.98
1495.62	1883.13
1502.15	1882.54
1508.69	1898.89
1515.22	1893.23
1521.75	1939.7
1528.29	2002.94
1534.82	2034.44
1541.35	2121.2
1547.89	2225.79
1554.42	2322.86
1560.95	2526.87
1567.49	2671.56
1574.02	2869.35
1580.55	3110.42
1587.09	3366.48
1593.62	3487.24
1600.15	3556.2
1606.69	3502.84
1613.22	3260.9
1619.75	2900.25
1626.29	2493.67
1632.82	2114.96
1639.35	1797.14
1645.89	1501.27
1652.42	1271.56
1658.95	1062.26
1665.49	908.017
1672.02	766.181
1678.55	619.341
1685.09	544
1691.62	492.602
1698.16	425.203
1704.69	397.771
1711.22	363.318
1717.76	319.402
1724.29	294.798
1730.82	281.508
1737.36	271.605
1743.89	255.937
1750.42	247.835
1756.96	227.099
1763.49	232.02
1770.02	220.403
1776.56	211.357
1783.09	231.51
1789.62	205.871
1796.16	215.552
1802.69	210.298
1809.22	204.906
1815.76	209.96
1822.29	199.483
1828.82	213.14
1835.36	208.182
1841.89	200.121
1848.42	198.229
1854.96	197.609
1861.49	180.349
1868.02	185.706
1874.56	188.94
1881.09	200.251
1887.62	184.307
1894.16	185.546
1900.69	200.403
1907.23	177.408
1913.76	184.929
1920.29	188.163
1926.83	191.752
1933.36	197.618
1939.89	201.365
1946.43	182.798
1952.96	197.549
1959.49	184.891
1966.03	200.966
1972.56	200.134
1979.09	204.444
1985.63	200.035
1992.16	202.963
1998.69	206.266
2000	197.36