File: Example Data/Raman/CNT - TIM/Raytheon/Al foil/2010/04-03-10/Al - 4-3-10 - run3 - 10 microns - B_1.txt
200	75.6092
209.816	85.4148
219.632	87.2215
229.448	82.6044
239.264	79.6518
249.08	86.6482
258.896	90.7426
268.712	84.1417
278.528	79.2477
288.344	88.0012
298.16	83.642
307.975	79.24
317.791	79.1334
327.607	75.828
337.423	64.6667
347.239	79.7965
357.055	77.5341
366.871	73.8166
376.687	69.4497
386.503	74.6365
396.319	65
406.135	74.1888
415.951	65.7056
425.767	69.5441
435.583	66.0856
445.399	69.1161
455.215	71.3773
465.031	65.2748
474.847	63.4748
484.663	65.2112
494.479	57.1622
504.294	55.2092
514.11	57.7888
523.926	61.7093
533.742	62.27
543.558	60.6271
553.374	58.1543
563.19	55.5583
573.006	54.8225
582.822	64.4195
592.638	60.729
602.454	59.4666
612.27	66.5105
622.086	62.7893
631.902	65.9286
641.718	66.8367
651.534	61.3965
661.35	65.6646
671.166	66.0546
680.982	70.2438
690.798	71.3187
700.614	60.6064
710.429	67.2377
720.245	66.1355
730.061	72.6391
739.877	69.9119
749.693	77.1993
759.509	75.0356
769.325	74.9348
779.141	85.1367
788.957	77.9694
798.773	85.7035
808.589	87.9364
818.405	82.6584
828.221	87.4652
838.037	87.828
847.853	99.8345
857.669	89.8818
867.485	90.6754
877.301	81.3468
887.117	84.6835
896.932	82.8747
906.748	74.2396
916.564	75.4389
926.38	67.4018
936.196	80.3303
946.012	73.8044
955.828	79.2214
965.644	67.0166
975.46	73.4296
985.276	73.68
995.092	83.3673
1004.91	88.6854
1014.72	87.2706
1024.54	92.5783
1034.36	94.4464
1044.17	92.964
1053.99	104.402
1063.8	101.141
1073.62	111.873
1083.44	108.333
1093.25	110.91
1103.07	125.087
1112.88	141.502
1122.7	131.85
1132.52	151.499
1142.33	162.894
1152.15	174.471
1161.96	182.253
1171.78	193.11
1181.6	203.247
1191.41	202.639
1201.23	203.809
1211.04	213.351
1220.86	228.766
1230.67	239.128
1240.49	250.455
1250.31	256.598
1260.12	289.852
1269.94	307.525
1279.75	343.186
1289.57	381.569
1299.39	426.783
1309.2	461.443
1319.02	496.002
1328.83	512.68
1338.65	512.507
1348.47	522.28
1358.28	502.278
1368.1	479.272
1377.91	465.511
1387.73	408.954
1397.55	382.985
1407.36	355.365
1417.18	336.212
1426.99	321.324
1436.81	307.285
1446.63	295.931
1456.44	297.15
1466.26	300.93
1476.07	302.959
1485.89	289.068
1495.71	291.66
1505.52	290.094
1515.34	296.069
1525.15	294.059
1534.97	300.707
1544.79	321.588
1554.6	349.621
1564.42	372.314
1574.23	404.969
1584.05	479.574
1593.86	556.378
1603.68	597.473
1613.5	543.995
1623.31	415.94
1633.13	299.728
1642.94	250.234
1652.76	200.69
1662.58	160.283
1672.39	126.905
1682.21	108.408
1692.02	91.2421
1701.84	86.4567
1711.66	72.3563
1721.47	69.8155
1731.29	69.7558
1741.1	64.588
1750.92	56.1621
1760.74	64.7389
1770.55	56.6448
1780.37	57.7646
1790.18	50.6258
1800	56.8591
1809.82	56.2832
1819.63	60.928
1829.45	67.5258
1839.26	57.0736
1849.08	61.2464
1858.9	53.6957
1868.71	54.7944
1878.53	52.7445
1888.34	67.0011
1898.16	59.2817
1907.98	57.6045
1917.79	54.4769
1927.61	50.5335
1937.42	58.4358
1947.24	50.6591
1957.06	48.9091
1966.87	61.1273
1976.69	54.0668
1986.5	56.4342
1996.32	52.0193
2006.14	62.1861
2015.95	54.1244
2025.77	56.6381
2035.58	55.017
2045.4	60.4956
2055.21	52.9421
2065.03	57.1707
2074.85	48.2226
2084.66	57.262
2094.48	56.0306
2104.29	55.3962
2114.11	56.1113
2123.93	56.0673
2133.74	59.6861
2143.56	60.7624
2153.37	56.9112
2163.19	54.7368
2173.01	65.1601
2182.82	60.6493
2192.64	57.9559
2202.45	59.2104
2212.27	60.444
2222.09	66.0576
2231.9	91.399
2241.72	64.4807
2251.53	65.0039
2261.35	59.437
2271.17	63.049
2280.98	70.1798
2290.8	71.9935
2300.61	66.6846
2310.43	70.9798
2320.25	67.8536
2330.06	87.6636
2339.88	72.4424
2349.69	62.9345
2359.51	69.1758
2369.33	71.9786
2379.14	70.3695
2388.96	79.2539
2398.77	77.8214
2408.59	70.2377
2418.41	80.0684
2428.22	81.5357
2438.04	81.7972
2447.85	82.6333
2457.67	79.0849
2467.48	85.3989
2477.3	87.6771
2487.12	92.6464
2496.93	83.5073
2506.75	91.0023
2516.56	91.9602
2526.38	93.1075
2536.2	94.1364
2546.01	100.368
2555.83	103.731
2565.64	103.192
2575.46	107.189
2585.28	106.451
2595.09	106.336
2604.91	109.386
2614.72	115.054
2624.54	111.261
2634.36	125.995
2644.17	112.456
2653.99	120.693
2663.8	127.997
2673.62	129.735
2683.44	130.441
2693.25	115.142
2703.07	125.392
2712.88	126.56
2722.7	117.618
2732.52	126.077
2742.33	113.971
2752.15	128.606
2761.96	118.69
2771.78	124.427
2781.59	119.12
2791.41	122.025
2801.23	116.943
2811.04	125.401
2820.86	141.768
2830.67	121.599
2840.49	127.258
2850.31	128.442
2860.12	127.817
2869.94	139.39
2879.75	120.172
2889.57	138.647
2899.39	138.395
2909.2	134.501
2919.02	146.126
2928.83	140.525
2938.65	141.774
2948.47	133.406
2958.28	134.201
2968.1	120.769
2977.91	128.056
2987.73	125.124
2997.55	112.047
3000	108.187