File: Example Data/Raman/CNT - TIM/Raytheon/Al foil/2010/04-03-10/Al - 4-3-10 - run3 - 10 microns - A_1.txt
200	72.1292
209.816	80.0661
219.632	80.9936
229.448	71.9011
239.264	72.7342
249.08	79.8677
258.896	75.4852
268.712	73.1369
278.528	73.5369
288.344	65.7383
298.16	68.9695
307.975	72.3111
317.791	64.8444
327.607	69.8978
337.423	67.3781
347.239	63.7284
357.055	67.6324
366.871	59.9703
376.687	66.4622
386.503	68.8943
396.319	66.8663
406.135	58.7389
415.951	60.1961
425.767	53.5097
435.583	61.5431
445.399	60.9096
455.215	55.5381
465.031	52.1306
474.847	55.0753
484.663	53.8321
494.479	54.2271
504.294	53.2633
514.11	44.3088
523.926	50.5598
533.742	54.4498
543.558	48.3966
553.374	53.3877
563.19	54.771
573.006	56.4221
582.822	51.9838
592.638	50.4796
602.454	53.5897
612.27	53.7291
622.086	49.7413
631.902	51.4945
641.718	55.61
651.534	66.3895
661.35	59.1032
671.166	61.6055
680.982	55.0293
690.798	56.0989
700.614	61.7872
710.429	65.9974
720.245	70.4294
730.061	66.1586
739.877	67.1322
749.693	67.5762
759.509	71.8432
769.325	80.1957
779.141	76.6294
788.957	70.7227
798.773	77.3047
808.589	73.307
818.405	76.7184
828.221	79.9337
838.037	79.8601
847.853	81.6586
857.669	82.1814
867.485	81.3259
877.301	80.5421
887.117	81.8525
896.932	71.7319
906.748	69.5346
916.564	67.7063
926.38	69.6747
936.196	69.4822
946.012	68.1588
955.828	70.9252
965.644	76.5092
975.46	64.1077
985.276	75.1121
995.092	71.9751
1004.91	71.1092
1014.72	71
1024.54	77.8009
1034.36	87.1753
1044.17	82.6913
1053.99	89.2253
1063.8	84.2902
1073.62	101.965
1083.44	96.9419
1093.25	91.5861
1103.07	105.754
1112.88	111.974
1122.7	112.598
1132.52	134.363
1142.33	145.391
1152.15	151.022
1161.96	156.333
1171.78	163.189
1181.6	171.216
1191.41	179.996
1201.23	175.049
1211.04	183.685
1220.86	182.817
1230.67	193.576
1240.49	205.363
1250.31	222.407
1260.12	227.924
1269.94	250.875
1279.75	285.137
1289.57	307.378
1299.39	340.297
1309.2	397.263
1319.02	421.804
1328.83	458.274
1338.65	476.237
1348.47	482.235
1358.28	464.726
1368.1	455.85
1377.91	389.489
1387.73	380.026
1397.55	335.399
1407.36	314.971
1417.18	309.724
1426.99	284.06
1436.81	281.768
1446.63	272.091
1456.44	277.446
1466.26	258.945
1476.07	261.944
1485.89	256.043
1495.71	264.635
1505.52	261.643
1515.34	261.883
1525.15	268.25
1534.97	271.107
1544.79	289.796
1554.6	323.529
1564.42	353.493
1574.23	379.982
1584.05	438.116
1593.86	496.587
1603.68	503.056
1613.5	463.227
1623.31	372.185
1633.13	297.69
1642.94	229.666
1652.76	194.507
1662.58	150.388
1672.39	125.111
1682.21	90.2183
1692.02	83.4817
1701.84	72.3758
1711.66	74.0473
1721.47	70.3664
1731.29	52.4043
1741.1	54.7962
1750.92	54.7826
1760.74	48.7389
1770.55	55.324
1780.37	54.3688
1790.18	47.7959
1800	50.401
1809.82	45.345
1819.63	51.6307
1829.45	50.9641
1839.26	47.2713
1849.08	47.0097
1858.9	44.4031
1868.71	46.5017
1878.53	52.0931
1888.34	50.7401
1898.16	47.5182
1907.98	49.4034
1917.79	55.5585
1927.61	57.6681
1937.42	51.6826
1947.24	51.6461
1957.06	51.118
1966.87	50.5805
1976.69	49.5999
1986.5	51.7807
1996.32	53.2631
2006.14	53.3968
2015.95	50.6252
2025.77	51.0678
2035.58	49.2678
2045.4	48.1798
2055.21	50.3934
2065.03	53.318
2074.85	55.1771
2084.66	54.8143
2094.48	55.2426
2104.29	60.9318
2114.11	49.8692
2123.93	47.9738
2133.74	56.1592
2143.56	54.0976
2153.37	57.8728
2163.19	50.31
2173.01	57.5487
2182.82	55.9537
2192.64	53.0055
2202.45	56.8771
2212.27	51.323
2222.09	54.2201
2231.9	56.6792
2241.72	59.4715
2251.53	60.1614
2261.35	57.983
2271.17	59.2896
2280.98	63.9493
2290.8	65.0882
2300.61	60.386
2310.43	60.102
2320.25	56.1501
2330.06	89.7743
2339.88	59.786
2349.69	61.1048
2359.51	68.128
2369.33	61.8975
2379.14	63.2348
2388.96	63.1679
2398.77	70.7149
2408.59	71.4569
2418.41	74.8732
2428.22	70.0488
2438.04	77.3471
2447.85	76.8566
2457.67	71.3136
2467.48	78.4477
2477.3	73.1318
2487.12	76.5506
2496.93	82.3003
2506.75	82.5465
2516.56	85.0871
2526.38	84.5402
2536.2	86.4814
2546.01	87.6319
2555.83	89.6114
2565.64	93.9125
2575.46	95.3186
2585.28	93.5449
2595.09	95.358
2604.91	94.6123
2614.72	110.075
2624.54	104.992
2634.36	112.023
2644.17	112.975
2653.99	123.554
2663.8	126.667
2673.62	117.221
2683.44	123.12
2693.25	116.158
2703.07	116.333
2712.88	122.496
2722.7	114.002
2732.52	122.352
2742.33	115.275
2752.15	114.475
2761.96	112.541
2771.78	105.853
2781.59	109.174
2791.41	111.239
2801.23	112.069
2811.04	111.834
2820.86	116.443
2830.67	108.622
2840.49	108.173
2850.31	119.772
2860.12	115.193
2869.94	118.021
2879.75	112.402
2889.57	115.777
2899.39	120.101
2909.2	121.944
2919.02	122.699
2928.83	113.015
2938.65	127.023
2948.47	119.657
2958.28	119.079
2968.1	112.051
2977.91	110.036
2987.73	104.93
2997.55	105.338
3000	102.729