File: Example Data/Raman/CNT - TIM/Raytheon/Al foil/2010/04-03-10/Al - 4-3-10 - run2 - 10 microns - A_1.txt
200	100.6
209.816	108.207
219.632	110.686
229.448	103.421
239.264	108.023
249.08	108.899
258.896	102.858
268.712	102.857
278.528	100.012
288.344	100.826
298.16	104.909
307.975	100.471
317.791	97.7666
327.607	91.7021
337.423	96.8531
347.239	91.3951
357.055	91.2323
366.871	92.7562
376.687	81.2861
386.503	83.7573
396.319	83.4354
406.135	81.3776
415.951	80.5877
425.767	88.5968
435.583	90.5431
445.399	75.7935
455.215	74.67
465.031	73.3197
474.847	81.1543
484.663	73.6591
494.479	68.5514
504.294	76.0462
514.11	76.8032
523.926	78.265
533.742	74.0294
543.558	68.7582
553.374	78.8473
563.19	73.9919
573.006	70.868
582.822	79.9788
592.638	68.6177
602.454	70.7538
612.27	74.3958
622.086	69.0266
631.902	66.1612
641.718	79.579
651.534	78.1684
661.35	76.7481
671.166	76.2925
680.982	77.0293
690.798	85.2673
700.614	90.2256
710.429	81.7702
720.245	84.8247
730.061	87.8436
739.877	84.87
749.693	88.2546
759.509	88.6825
769.325	93.5174
779.141	100.851
788.957	94.7959
798.773	93.5951
808.589	95.5054
818.405	99.5715
828.221	100.194
838.037	97.2151
847.853	105.356
857.669	94.6667
867.485	103.667
877.301	105.704
887.117	101.501
896.932	92.2507
906.748	92.3333
916.564	91.8548
926.38	92
936.196	88.738
946.012	87.0685
955.828	87.4742
965.644	79.3327
975.46	92.6884
985.276	88.1354
995.092	95.3742
1004.91	97.4311
1014.72	102.118
1024.54	101.844
1034.36	115.608
1044.17	114.069
1053.99	116.976
1063.8	120.049
1073.62	112.429
1083.44	121.61
1093.25	129.739
1103.07	134.021
1112.88	147.893
1122.7	142.908
1132.52	154.35
1142.33	162.014
1152.15	168.488
1161.96	173.26
1171.78	183.125
1181.6	181.622
1191.41	196.318
1201.23	195.595
1211.04	213.552
1220.86	205.864
1230.67	232.844
1240.49	233.668
1250.31	256.437
1260.12	269.688
1269.94	300.859
1279.75	314.755
1289.57	353.183
1299.39	378.583
1309.2	409.244
1319.02	460.183
1328.83	488.459
1338.65	521.791
1348.47	486.274
1358.28	485.761
1368.1	444.851
1377.91	412.638
1387.73	383.345
1397.55	355.853
1407.36	333.242
1417.18	335.561
1426.99	317.306
1436.81	310.978
1446.63	299.174
1456.44	295.824
1466.26	287.231
1476.07	283.502
1485.89	276.855
1495.71	292.595
1505.52	281.321
1515.34	299.688
1525.15	304.146
1534.97	318.705
1544.79	341.032
1554.6	381.588
1564.42	404.726
1574.23	439.695
1584.05	490.397
1593.86	517.618
1603.68	506.049
1613.5	436.599
1623.31	360.087
1633.13	277.102
1642.94	225.097
1652.76	176.562
1662.58	150.781
1672.39	139.178
1682.21	106.378
1692.02	101.639
1701.84	87.1669
1711.66	82.5477
1721.47	80.0165
1731.29	79.7717
1741.1	83.0104
1750.92	73.1555
1760.74	75.8562
1770.55	74.5156
1780.37	72.3511
1790.18	72.1841
1800	76.1103
1809.82	64.6075
1819.63	67.3159
1829.45	66.6639
1839.26	64.8928
1849.08	65.3478
1858.9	69.6047
1868.71	60.1424
1878.53	68.2532
1888.34	68.7227
1898.16	63.4796
1907.98	67.0928
1917.79	59.4823
1927.61	62.3305
1937.42	68.3045
1947.24	64.9925
1957.06	70.5965
1966.87	63.2321
1976.69	68.0447
1986.5	65.035
1996.32	67.4063
2006.14	67.1227
2015.95	66.2575
2025.77	70.775
2035.58	62.7559
2045.4	69.9591
2055.21	69.0436
2065.03	69.4426
2074.85	62.5851
2084.66	64.5201
2094.48	67.2735
2104.29	70.6378
2114.11	68.4509
2123.93	66.8689
2133.74	69.5217
2143.56	67.9963
2153.37	69.5175
2163.19	63.0934
2173.01	64.0932
2182.82	67.7593
2192.64	70.1639
2202.45	62.4917
2212.27	71.6285
2222.09	66.5736
2231.9	75.3253
2241.72	69.1435
2251.53	70.5265
2261.35	77.4587
2271.17	72.5308
2280.98	77.8221
2290.8	63.9065
2300.61	73.8651
2310.43	66.636
2320.25	74.8454
2330.06	98.5297
2339.88	77.1414
2349.69	79.9845
2359.51	77.1122
2369.33	81.6051
2379.14	81.3065
2388.96	83.8986
2398.77	82.4964
2408.59	78.9354
2418.41	82.6116
2428.22	86.0334
2438.04	93.603
2447.85	88.1628
2457.67	84.9423
2467.48	93.2404
2477.3	91.2175
2487.12	92.0684
2496.93	97.5654
2506.75	96.4968
2516.56	94.0415
2526.38	102.749
2536.2	99.9763
2546.01	101.437
2555.83	99.6345
2565.64	106.785
2575.46	106.844
2585.28	118.748
2595.09	115.433
2604.91	118.563
2614.72	123.366
2624.54	126.275
2634.36	128.995
2644.17	122.323
2653.99	135.242
2663.8	134.437
2673.62	138.973
2683.44	139.546
2693.25	127.854
2703.07	131.667
2712.88	136.186
2722.7	123.715
2732.52	127.364
2742.33	138.585
2752.15	128.878
2761.96	122.07
2771.78	117.92
2781.59	129.746
2791.41	119.836
2801.23	124.828
2811.04	122.237
2820.86	133.769
2830.67	122.006
2840.49	124.634
2850.31	126.895
2860.12	124.473
2869.94	138.067
2879.75	134.989
2889.57	122.891
2899.39	134.598
2909.2	132.498
2919.02	135.183
2928.83	131.298
2938.65	117.753
2948.47	134.327
2958.28	128.489
2968.1	121.462
2977.91	122.737
2987.73	114.649
2997.55	108.842
3000	124.604