File: Example Data/Raman/CNT - TIM/Raytheon/Al foil/2010/04-03-10/Al - 4-3-10 - run3 - 25 microns - A_1.txt
200	60.0319
209.816	69
219.632	72.6187
229.448	70.37
239.264	71.3024
249.08	73.5159
258.896	67.277
268.712	69.3768
278.528	66.4277
288.344	64.3907
298.16	72.9848
307.975	61.0267
317.791	66.3445
327.607	61.7011
337.423	63.495
347.239	57.8302
357.055	70.9
366.871	67.9698
376.687	58.7547
386.503	60.0566
396.319	56.3333
406.135	56.3678
415.951	56.0002
425.767	59.9118
435.583	52.476
445.399	52.9377
455.215	56.1269
465.031	55.117
474.847	54.7484
484.663	56.0458
494.479	42.3784
504.294	47.0621
514.11	49.3104
523.926	46.1495
533.742	49.3097
543.558	49.6508
553.374	50.6228
563.19	47.5359
573.006	48.3333
582.822	53.769
592.638	51.9703
602.454	52.9692
612.27	47.0206
622.086	55.6719
631.902	58.7179
641.718	51.6356
651.534	55.621
661.35	56.0754
671.166	52.8368
680.982	57.3781
690.798	59.4065
700.614	58.2886
710.429	67.9017
720.245	58.9376
730.061	66.2643
739.877	60.9582
749.693	68.1089
759.509	68.1278
769.325	69.1841
779.141	67.6418
788.957	69.3877
798.773	69.7894
808.589	78.3178
818.405	79.4741
828.221	73.0529
838.037	70.7311
847.853	75.0388
857.669	72.8439
867.485	80.8411
877.301	70.4209
887.117	72.6482
896.932	67.6442
906.748	65.7256
916.564	57.0726
926.38	63.9406
936.196	61.4465
946.012	62.1798
955.828	67.2874
965.644	59.6138
975.46	71.2039
985.276	64.6205
995.092	70.8753
1004.91	71.3521
1014.72	74.479
1024.54	82.6676
1034.36	82.8385
1044.17	83.5599
1053.99	91.9126
1063.8	87.0804
1073.62	83.4949
1083.44	97.0392
1093.25	99.4143
1103.07	108.039
1112.88	113.169
1122.7	104.639
1132.52	121.955
1142.33	125.595
1152.15	136.87
1161.96	152.086
1171.78	150.095
1181.6	157.951
1191.41	161.089
1201.23	157.033
1211.04	182.014
1220.86	175.144
1230.67	186.82
1240.49	207.027
1250.31	216.413
1260.12	232.967
1269.94	244.116
1279.75	276.382
1289.57	304.714
1299.39	335.45
1309.2	391.981
1319.02	409.659
1328.83	457.706
1338.65	492.273
1348.47	487.168
1358.28	469.92
1368.1	453.678
1377.91	406.236
1387.73	359.848
1397.55	346.249
1407.36	311.578
1417.18	273.459
1426.99	283.394
1436.81	264.765
1446.63	272.434
1456.44	257.502
1466.26	256.629
1476.07	242.082
1485.89	245.974
1495.71	256.124
1505.52	250.753
1515.34	256.121
1525.15	257.074
1534.97	267.37
1544.79	290.069
1554.6	315.307
1564.42	341.074
1574.23	399.888
1584.05	439.582
1593.86	509.738
1603.68	526.826
1613.5	488.391
1623.31	402.332
1633.13	297.239
1642.94	237.092
1652.76	180.982
1662.58	145.51
1672.39	114.175
1682.21	93.4817
1692.02	73.9293
1701.84	70.2111
1711.66	63.261
1721.47	54.1314
1731.29	57.979
1741.1	53.5945
1750.92	48.1621
1760.74	50.2071
1770.55	48.1544
1780.37	40.1167
1790.18	49.2655
1800	49.7915
1809.82	53.4839
1819.63	48.8652
1829.45	48.3416
1839.26	47.3333
1849.08	46.7294
1858.9	47.8992
1868.71	48.1748
1878.53	45.8528
1888.34	46.4073
1898.16	42.4258
1907.98	46.8837
1917.79	50.7695
1927.61	44.3329
1937.42	44.7677
1947.24	53.1629
1957.06	43.7322
1966.87	45.839
1976.69	45.3331
1986.5	47.2763
1996.32	46.0895
2006.14	53.2454
2015.95	52.3677
2025.77	48.6298
2035.58	51.6486
2045.4	52.5306
2055.21	49.1388
2065.03	48.1707
2074.85	49.6002
2084.66	48.7058
2094.48	50.1818
2104.29	45.3727
2114.11	49.3139
2123.93	47.8502
2133.74	47.1839
2143.56	48.3996
2153.37	48.057
2163.19	53.4097
2173.01	53.5982
2182.82	57.5856
2192.64	50.9366
2202.45	52.4208
2212.27	48.1807
2222.09	55.3547
2231.9	52.4642
2241.72	54.8629
2251.53	54.56
2261.35	54.2932
2271.17	55.4857
2280.98	58.9691
2290.8	51.717
2300.61	55.9693
2310.43	55.0558
2320.25	51.6098
2330.06	71.0856
2339.88	59.2145
2349.69	60.9607
2359.51	62.5328
2369.33	61.7456
2379.14	58.4151
2388.96	67.356
2398.77	63.4902
2408.59	66.0951
2418.41	63.2997
2428.22	74.1967
2438.04	71.9157
2447.85	75.9721
2457.67	71.2769
2467.48	74.4029
2477.3	77.0755
2487.12	78.4376
2496.93	80.6867
2506.75	78.0046
2516.56	81.8596
2526.38	77.8556
2536.2	84.3454
2546.01	88.7747
2555.83	88.2578
2565.64	95.0027
2575.46	85.2809
2585.28	95.6441
2595.09	96.6863
2604.91	102.121
2614.72	106.577
2624.54	112.599
2634.36	111.492
2644.17	112.768
2653.99	130.401
2663.8	128.369
2673.62	128.163
2683.44	136.654
2693.25	132.901
2703.07	134.706
2712.88	128.29
2722.7	116.028
2732.52	119.191
2742.33	120.825
2752.15	120.479
2761.96	113.781
2771.78	117.267
2781.59	117.32
2791.41	118.145
2801.23	104.954
2811.04	105.028
2820.86	108.034
2830.67	116.625
2840.49	103.092
2850.31	117.623
2860.12	124.097
2869.94	113.203
2879.75	118.31
2889.57	121.447
2899.39	113.753
2909.2	122.61
2919.02	129.982
2928.83	124.997
2938.65	127.264
2948.47	122.495
2958.28	119.667
2968.1	120.026
2977.91	116.146
2987.73	103.105
2997.55	106.342
3000	98.7916