File: Example Data/Raman/CNT - TIM/Raytheon/Al foil/2010/04-03-10/Al - 4-3-10 - run2 - 10 microns - b_3.txt
200	82.8293
209.816	89.5547
219.632	82.689
229.448	88.2088
239.264	92.158
249.08	87.0335
258.896	93.548
268.712	93.1948
278.528	93.7995
288.344	90.129
298.16	91.4038
307.975	81.6178
317.791	88.5555
327.607	85.3591
337.423	83.3707
347.239	82.3333
357.055	80.0339
366.871	91.6354
376.687	80.8711
386.503	83.3069
396.319	77.9978
406.135	79.2676
415.951	84.3531
425.767	74.9301
435.583	85.5526
445.399	75.0323
455.215	72.9983
465.031	81.2299
474.847	65.03125
484.663	81.6082
494.479	73.3315
504.294	66.1861
514.11	61.4928
523.926	70.0215
533.742	61.9955
543.558	59.8056
553.374	63.0719
563.19	67.3252
573.006	65.5541
582.822	62.6991
592.638	61.046
602.454	62.4923
612.27	64.6145
622.086	66.4053
631.902	67.3828
641.718	75.9433
651.534	78.186
661.35	78.5872
671.166	74.1224
680.982	74.7315
690.798	70.0915
700.614	74.6977
710.429	73.9974
720.245	72.7738
730.061	77.115
739.877	75.3209
749.693	81.3149
759.509	83.3834
769.325	89.1957
779.141	78.1616
788.957	83.937
798.773	92.9346
808.589	92.4372
818.405	96
828.221	95.2212
838.037	87.2473
847.853	97.1719
857.669	94.5991
867.485	92.1603
877.301	87.8552
887.117	90.9816
896.932	84.8044
906.748	83.5626
916.564	78.2277
926.38	76.1198
936.196	90.0357
946.012	80.7938
955.828	83.7212
965.644	79.6488
975.46	90.1924
985.276	87
995.092	77.2314
1004.91	95.8175
1014.72	92.6945
1024.54	101.756
1034.36	115.653
1044.17	107.051
1053.99	113.363
1063.8	126.474
1073.62	121.031
1083.44	127.354
1093.25	137.784
1103.07	138.85
1112.88	143.387
1122.7	152.977
1132.52	170.257
1142.33	180.966
1152.15	205.814
1161.96	208.665
1171.78	221.174
1181.6	233.715
1191.41	228.516
1201.23	243.776
1211.04	268.15
1220.86	277.821
1230.67	298.163
1240.49	308.607
1250.31	326.64
1260.12	344.165
1269.94	391.59
1279.75	424.21
1289.57	472.09
1299.39	540.205
1309.2	575.287
1319.02	669.804
1328.83	714.544
1338.65	785.69
1348.47	779.44
1358.28	760.505
1368.1	713.931
1377.91	628.991
1387.73	576.239
1397.55	529.714
1407.36	502.457
1417.18	440.198
1426.99	415.172
1436.81	405.016
1446.63	401.439
1456.44	375.016
1466.26	382.917
1476.07	387.452
1485.89	381.705
1495.71	392.742
1505.52	396.027
1515.34	391.076
1525.15	405.52
1534.97	422.036
1544.79	450.559
1554.6	499.625
1564.42	543.322
1574.23	630.2
1584.05	721.087
1593.86	783.085
1603.68	876.072
1613.5	811.135
1623.31	703.117
1633.13	521.488
1642.94	381.91
1652.76	303.946
1662.58	231.291
1672.39	190.128
1682.21	147.445
1692.02	125.801
1701.84	110.042
1711.66	94.883
1721.47	92.55
1731.29	86.0182
1741.1	83.5519
1750.92	77.8221
1760.74	70.5136
1770.55	69.8429
1780.37	61.6396
1790.18	66.0749
1800	72.8221
1809.82	71.4014
1819.63	72.1893
1829.45	70.6004
1839.26	63.3049
1849.08	66.4299
1858.9	68.0911
1868.71	63.2055
1878.53	70.5995
1888.34	71.5748
1898.16	59.0902
1907.98	63.0546
1917.79	65.2624
1927.61	59.5996
1937.42	67.3622
1947.24	71.5448
1957.06	68.1133
1966.87	61.5768
1976.69	68.1554
1986.5	69.057
1996.32	69.3306
2006.14	68.0042
2015.95	59.4468
2025.77	72.2333
2035.58	67.3977
2045.4	72.8231
2055.21	62.1574
2065.03	71.1698
2074.85	69.4592
2084.66	70.0763
2094.48	71.1512
2104.29	57.0734
2114.11	67.0981
2123.93	66.3596
2133.74	65.6428
2143.56	77.5728
2153.37	73.9616
2163.19	65.1572
2173.01	72.2343
2182.82	71.6551
2192.64	66.4656
2202.45	67.1369
2212.27	69.4419
2222.09	68.1127
2231.9	70.3681
2241.72	73.9975
2251.53	72.6333
2261.35	75.7252
2271.17	80.2264
2280.98	79.9527
2290.8	83.777
2300.61	75.4918
2310.43	81.7628
2320.25	87.1287
2330.06	105.238
2339.88	80.3835
2349.69	88.9402
2359.51	81.22
2369.33	87.7651
2379.14	89.4082
2388.96	89.8669
2398.77	95.9688
2408.59	92.4081
2418.41	100.365
2428.22	102.437
2438.04	107.105
2447.85	105.973
2457.67	103.601
2467.48	114.7
2477.3	113.871
2487.12	118.463
2496.93	116.817
2506.75	119.997
2516.56	118.792
2526.38	127.927
2536.2	124.694
2546.01	136.108
2555.83	136.917
2565.64	133.475
2575.46	147.545
2585.28	152.087
2595.09	148.998
2604.91	149.921
2614.72	162.777
2624.54	168.697
2634.36	185.828
2644.17	176.744
2653.99	192.242
2663.8	206.39
2673.62	218.236
2683.44	237.194
2693.25	217.322
2703.07	230.608
2712.88	213.064
2722.7	211.921
2732.52	198.746
2742.33	196.328
2752.15	189.732
2761.96	204.252
2771.78	189.087
2781.59	179.494
2791.41	179.607
2801.23	186.517
2811.04	184.186
2820.86	177.967
2830.67	181.956
2840.49	177.04
2850.31	196.16
2860.12	187.505
2869.94	186.891
2879.75	194.931
2889.57	192.005
2899.39	208.101
2909.2	199.242
2919.02	203.472
2928.83	208.023
2938.65	217.883
2948.47	206.703
2958.28	195.588
2968.1	190.641
2977.91	181.277
2987.73	174.877
2997.55	172.735
3000	175.177