File: Example Data/Raman/Kara/12-20-10/C-Si-Graphene/1 bulk/CSGbulk1_2.txt
100	131.873
112.793	155.167
125.586	177.658
138.38	200.85
151.173	196.887
163.966	184.374
176.759	169.072
189.552	171.923
202.345	156.904
215.139	150.893
227.932	168.096
240.725	172.968
253.518	177.433
266.311	184.013
279.104	210.914
291.898	221.34
304.691	230.718
317.484	214.164
330.277	196.293
343.07	182.396
355.864	180.097
368.657	176.546
381.45	177.063
394.243	176.384
407.036	159.684
419.829	174.425
432.623	180.585
445.416	176.959
458.209	195.927
471.002	222.402
483.795	295.35
496.589	424.175
509.382	766.051
522.175	632.93
534.968	204.236
547.761	116.875
560.554	101.147
573.348	96.0693
586.141	91.9916
598.934	89.9637
611.727	99.9671
624.52	94.16
637.313	84.7754
650.107	95.5673
662.9	86.6295
675.693	90.2361
688.486	83.2351
701.279	83.3038
714.073	79.4103
726.866	77.3728
739.659	81.8896
752.452	80.9425
765.245	92.2229
778.038	87.8569
790.832	83.2501
803.625	89.227
816.418	89.3532
829.211	87.3977
842.004	92.1708
854.797	103.421
867.591	102.93
880.384	103.394
893.177	114.095
905.97	107.53
918.763	132.618
931.557	138.241
944.35	130.623
957.143	127.768
969.936	112.415
982.729	104.459
995.522	103.84
1008.32	93.283
1021.11	90.8181
1033.9	90.7884
1046.7	88.0356
1059.49	97.4703
1072.28	98.0355
1085.07	93.4981
1097.87	109.772
1110.66	105.19
1123.45	116.319
1136.25	122.296
1149.04	140.187
1161.83	146.253
1174.63	155.92
1187.42	163.236
1200.21	177.391
1213.01	181.519
1225.8	200.38
1238.59	221.422
1251.39	225.86
1264.18	248.511
1276.97	272.683
1289.77	293.85
1302.56	319.694
1315.35	334.772
1328.15	348.564
1340.94	390.58
1353.73	390.107
1366.52	393.032
1379.32	368.501
1392.11	333.104
1404.9	318.025
1417.7	288.621
1430.49	271.263
1443.28	265.776
1456.08	263.449
1468.87	259.27
1481.66	253.175
1494.46	246.115
1507.25	250.073
1520.04	257.719
1532.84	256.607
1545.63	279.012
1558.42	300.645
1571.22	354.757
1584.01	393.024
1596.8	423.902
1609.59	401.113
1622.39	327.196
1635.18	258.206
1647.97	189.703
1660.77	150.825
1673.56	124.586
1686.35	114
1699.15	94.1955
1711.94	89.5692
1724.73	81.1167
1737.53	73.2262
1750.32	65.1947
1763.11	74.7174
1775.91	69.3263
1788.7	67.4227
1801.49	66.4
1814.29	57.1797
1827.08	60.5421
1839.87	59.5898
1852.67	63.1659
1865.46	63.7191
1878.25	56.6763
1891.04	56.182
1903.84	57.482
1916.63	57.7557
1929.42	56
1942.22	58.5433
1955.01	59.6838
1967.8	60.4696
1980.6	53.7998
1993.39	58.9347
2006.18	54.4048
2018.98	57.6012
2031.77	51.9169
2044.56	53.9691
2057.36	60.5522
2070.15	57.3879
2082.94	52.1195
2095.74	53.7007
2108.53	59.7707
2121.32	55.3341
2134.12	58.8246
2146.91	57.0254
2159.7	57.4317
2172.49	60.8813
2185.29	59.1414
2198.08	61.5699
2210.87	67.4181
2223.67	61.914
2236.46	63.3324
2249.25	66.9125
2262.05	61.9473
2274.84	66.9887
2287.63	70.9745
2300.43	68.2895
2313.22	67.792
2326.01	75.5748
2338.81	80.2091
2351.6	74.5201
2364.39	71.2137
2377.19	73.1685
2389.98	79.1304
2402.77	80.5128
2415.56	85.1774
2428.36	86.2256
2441.15	103.935
2453.94	98.6975
2466.74	94.62
2479.53	89.9657
2492.32	97.0141
2505.12	95.9451
2517.91	96.9483
2530.7	101.918
2543.5	104.189
2556.29	106.262
2569.08	109.976
2581.88	111.628
2594.67	106.924
2607.46	111.631
2620.26	110.164
2633.05	117.226
2645.84	124.216
2658.64	126.808
2671.43	121.465
2684.22	124.266
2697.01	122.533
2709.81	128.043
2722.6	128.053
2735.39	130.229
2748.19	133.65
2760.98	137.188
2773.77	135.405
2786.57	137.214
2799.36	138.142
2812.15	131.183
2824.95	140.831
2837.74	133.973
2850.53	130.206
2863.33	140.274
2876.12	143.961
2888.91	152.534
2901.71	149.25
2914.5	155.475
2927.29	152.746
2940.09	149.133
2952.88	157.752
2965.67	159.597
2978.46	147.098
2991.26	147.261
3004.05	142.69
3016.84	128.639
3029.64	137.368
3042.43	128.24
3055.22	126.313
3068.02	138.063
3080.81	128.045
3093.6	138.556
3106.4	137.266
3119.19	138.711
3131.98	128.804
3144.78	137.251
3157.57	134.375
3170.36	137.166
3183.16	138.621
3195.95	136.83
3208.74	136.678
3221.54	127.645
3234.33	142.554
3247.12	138.652
3259.91	130.584
3272.71	134.257
3285.5	126.064
3298.29	128.584
3311.09	130.479
3323.88	127.794
3336.67	120.075
3349.47	126.324
3362.26	134.74
3375.05	132.364
3387.85	135.476
3400.64	131.309
3413.43	128.484
3426.23	137.186
3439.02	136.369
3451.81	138.827
3464.61	135.15
3477.4	142.436
3490.19	139.49
3502.99	132.795
3515.78	138.86
3528.57	150.931
3541.36	149.15
3554.16	141.469
3566.95	154.863
3579.74	149.825
3592.54	148.433
3605.33	143.81
3618.12	154.757
3630.92	153.506
3643.71	154.147
3656.5	152.435
3669.3	163.46
3682.09	154.756
3694.88	163.649
3700	157.421