File: Example Data/Raman/Kara/12-20-10/C-Si-Graphene/1 bulk/CSGbulk1_4.txt
100	331.83
112.793	392.087
125.586	475.922
138.38	514.841
151.173	518.196
163.966	480.457
176.759	441.32
189.552	417.037
202.345	392.743
215.139	387.922
227.932	416.71
240.725	470.885
253.518	487.847
266.311	529.353
279.104	567.003
291.898	622.384
304.691	633.771
317.484	581.837
330.277	567.078
343.07	527.193
355.864	501.891
368.657	479.686
381.45	468.28
394.243	460.258
407.036	482.31
419.829	468.738
432.623	490.728
445.416	508.468
458.209	557.835
471.002	694.564
483.795	884.797
496.589	1320.51
509.382	2552.2
522.175	1830.14
534.968	569.076
547.761	314.675
560.554	263.012
573.348	240.911
586.141	237.563
598.934	254.016
611.727	267.556
624.52	253.24
637.313	236.823
650.107	233.544
662.9	237.279
675.693	211.665
688.486	213.105
701.279	210.555
714.073	189.237
726.866	204.52
739.659	201.169
752.452	210.818
765.245	215.626
778.038	223.478
790.832	225.86
803.625	233.616
816.418	237.457
829.211	241.023
842.004	239.768
854.797	237.493
867.591	256.138
880.384	267.699
893.177	290.152
905.97	323.339
918.763	358.738
931.557	383.537
944.35	378.065
957.143	352.154
969.936	310.545
982.729	258.407
995.522	235.806
1008.32	212.282
1021.11	203.734
1033.9	192.479
1046.7	191.2
1059.49	197.556
1072.28	194.734
1085.07	194.441
1097.87	204.386
1110.66	211.324
1123.45	224.47
1136.25	237.955
1149.04	246.64
1161.83	261.982
1174.63	277.446
1187.42	292.436
1200.21	306.451
1213.01	334.866
1225.8	346.063
1238.59	371.951
1251.39	390.917
1264.18	434.585
1276.97	450.013
1289.77	477.297
1302.56	508.896
1315.35	558.894
1328.15	603.227
1340.94	639.283
1353.73	656.274
1366.52	660.291
1379.32	626.232
1392.11	575.238
1404.9	545.226
1417.7	502.006
1430.49	481.217
1443.28	454.215
1456.08	449.357
1468.87	430.644
1481.66	428.321
1494.46	427.363
1507.25	428.14
1520.04	438.436
1532.84	442.262
1545.63	458.301
1558.42	514.861
1571.22	590.312
1584.01	669.285
1596.8	720.466
1609.59	679.614
1622.39	586.465
1635.18	445.704
1647.97	350.832
1660.77	303.168
1673.56	256.219
1686.35	230.363
1699.15	201.49
1711.94	180.59
1724.73	183.64
1737.53	183.233
1750.32	160.13
1763.11	160.108
1775.91	165.697
1788.7	157.001
1801.49	156.926
1814.29	150.062
1827.08	150
1839.87	159.888
1852.67	151.107
1865.46	146.473
1878.25	151.409
1891.04	153.852
1903.84	141.376
1916.63	146.545
1929.42	146.319
1942.22	149.184
1955.01	154.9
1967.8	148.711
1980.6	149.414
1993.39	151.672
2006.18	151.889
2018.98	153.691
2031.77	156.238
2044.56	147.602
2057.36	150.533
2070.15	151.522
2082.94	154.982
2095.74	147.421
2108.53	148.899
2121.32	154.228
2134.12	155.358
2146.91	154.216
2159.7	161.237
2172.49	164.163
2185.29	156.745
2198.08	166.495
2210.87	163.33
2223.67	160.483
2236.46	163.944
2249.25	166.943
2262.05	181.821
2274.84	170.406
2287.63	179.624
2300.43	172.374
2313.22	186.032
2326.01	185.866
2338.81	200.6
2351.6	189.496
2364.39	188.216
2377.19	193.005
2389.98	189.738
2402.77	193.252
2415.56	213.873
2428.36	221.866
2441.15	244.404
2453.94	236.934
2466.74	225.938
2479.53	228.377
2492.32	225.905
2505.12	229.047
2517.91	232.618
2530.7	237.466
2543.5	243.711
2556.29	247.657
2569.08	250.059
2581.88	255.304
2594.67	261.259
2607.46	259.783
2620.26	269.702
2633.05	276.848
2645.84	268.626
2658.64	268.871
2671.43	284.183
2684.22	292.426
2697.01	292.221
2709.81	295.021
2722.6	293.093
2735.39	297.741
2748.19	289.715
2760.98	301.114
2773.77	296.613
2786.57	298.002
2799.36	310.514
2812.15	310.755
2824.95	308.04
2837.74	321.134
2850.53	319.977
2863.33	316.34
2876.12	321.771
2888.91	332.525
2901.71	340.326
2914.5	347.582
2927.29	350.402
2940.09	353.747
2952.88	347.124
2965.67	342.877
2978.46	335.96
2991.26	325.564
3004.05	328.151
3016.84	338.314
3029.64	334.428
3042.43	330.892
3055.22	328.565
3068.02	335.998
3080.81	339.916
3093.6	341.013
3106.4	313.557
3119.19	339.728
3131.98	331.179
3144.78	340.561
3157.57	345.315
3170.36	338.514
3183.16	347.78
3195.95	348.798
3208.74	349.805
3221.54	360.585
3234.33	352.969
3247.12	349.323
3259.91	347.414
3272.71	346.116
3285.5	335.393
3298.29	356.885
3311.09	344.122
3323.88	338.86
3336.67	358.354
3349.47	352.017
3362.26	355.082
3375.05	343.431
3387.85	358.024
3400.64	369.57
3413.43	365.354
3426.23	364.349
3439.02	365.041
3451.81	386.951
3464.61	380.768
3477.4	389.227
3490.19	382.132
3502.99	379.071
3515.78	376.672
3528.57	382.748
3541.36	396.698
3554.16	398.6
3566.95	407.43
3579.74	416.064
3592.54	415.755
3605.33	412.614
3618.12	427.739
3630.92	434.183
3643.71	429.637
3656.5	439.741
3669.3	426.152
3682.09	436.836
3694.88	444.664
3700	443.731