File: Example Data/Raman/Kara/12-20-10/C-Si-Graphene/1 bulk/CSGbulk1_1.txt
100	100.773
112.793	113.744
125.586	126.892
138.38	147.185
151.173	137.734
163.966	129.047
176.759	124.962
189.552	116.612
202.345	106.634
215.139	107.776
227.932	105.937
240.725	115.351
253.518	116.786
266.311	128.352
279.104	127.645
291.898	137.84
304.691	133.197
317.484	127.364
330.277	124.66
343.07	117.295
355.864	111.289
368.657	112.393
381.45	97.5074
394.243	114.91
407.036	105.3
419.829	108.544
432.623	107.759
445.416	107.303
458.209	113.597
471.002	129.119
483.795	161.966
496.589	216.037
509.382	376.775
522.175	381.365
534.968	133.131
547.761	78.1065
560.554	58.7917
573.348	65.0436
586.141	58.8958
598.934	63.3016
611.727	69.0883
624.52	65.8
637.313	60.6799
650.107	65.7536
662.9	60.6863
675.693	62.6298
688.486	56.3929
701.279	58.5623
714.073	53.4044
726.866	53.5392
739.659	60.088
752.452	54.8473
765.245	60.3262
778.038	61.0549
790.832	64.9408
803.625	75.3373
816.418	68.1581
829.211	62.0874
842.004	70.2131
854.797	66.3897
867.591	73.0725
880.384	77.4288
893.177	70.2347
905.97	81.0487
918.763	79.3403
931.557	90.5382
944.35	90.4546
957.143	90.6367
969.936	84.8877
982.729	73.3629
995.522	74.7792
1008.32	64.1387
1021.11	64.6588
1033.9	72.3855
1046.7	76.5257
1059.49	84.7762
1072.28	78.677
1085.07	81.9528
1097.87	85.1147
1110.66	93.1554
1123.45	100.936
1136.25	105.839
1149.04	124.352
1161.83	137.096
1174.63	149.358
1187.42	160.964
1200.21	176.477
1213.01	184.2
1225.8	203.826
1238.59	223.082
1251.39	235.543
1264.18	251.534
1276.97	274.546
1289.77	283.467
1302.56	302.876
1315.35	330.344
1328.15	352.085
1340.94	348.768
1353.73	365.419
1366.52	370.013
1379.32	337.091
1392.11	325.641
1404.9	298.49
1417.7	277.659
1430.49	262.232
1443.28	250.738
1456.08	241.939
1468.87	238.33
1481.66	235.057
1494.46	231.624
1507.25	240.063
1520.04	235.153
1532.84	250.486
1545.63	265.006
1558.42	297.153
1571.22	345.112
1584.01	398.809
1596.8	409.738
1609.59	392.293
1622.39	306.833
1635.18	227.537
1647.97	171.546
1660.77	130.197
1673.56	102.236
1686.35	82.6932
1699.15	75.3325
1711.94	66.9179
1724.73	60.2397
1737.53	58.7694
1750.32	55.5081
1763.11	47.9156
1775.91	49.2925
1788.7	47.2717
1801.49	44.7837
1814.29	43.6621
1827.08	40.896
1839.87	37.688
1852.67	42.9569
1865.46	43.9483
1878.25	37.4543
1891.04	37.7529
1903.84	35.9527
1916.63	35.7165
1929.42	41.9933
1942.22	42.4942
1955.01	35.9991
1967.8	42.1863
1980.6	37.5725
1993.39	40.749
2006.18	38.4993
2018.98	40.9425
2031.77	40.9605
2044.56	38.6826
2057.36	39.0872
2070.15	40.1843
2082.94	42.822
2095.74	39.7848
2108.53	41.0163
2121.32	38.4179
2134.12	44.5035
2146.91	43.1221
2159.7	40.4694
2172.49	45.2972
2185.29	46.5119
2198.08	45.4566
2210.87	42.3593
2223.67	47.2269
2236.46	46.6017
2249.25	46.6582
2262.05	48.004
2274.84	52.5424
2287.63	51.403
2300.43	54.9615
2313.22	52.1865
2326.01	57.4752
2338.81	58.3348
2351.6	52.2784
2364.39	57.9723
2377.19	58.7843
2389.98	65.2601
2402.77	63.6777
2415.56	67.1887
2428.36	73.3717
2441.15	85.6712
2453.94	79.3931
2466.74	74.7579
2479.53	75.869
2492.32	73.9131
2505.12	80.3526
2517.91	75.3065
2530.7	85.3785
2543.5	82.6107
2556.29	84.6607
2569.08	91.3078
2581.88	86.0944
2594.67	93.896
2607.46	93.039
2620.26	97.9985
2633.05	96.9491
2645.84	103.901
2658.64	103.882
2671.43	105.712
2684.22	107.78
2697.01	102.35
2709.81	110.353
2722.6	112.535
2735.39	112.945
2748.19	108.736
2760.98	108.16
2773.77	114.114
2786.57	110.362
2799.36	125.131
2812.15	123.414
2824.95	129.978
2837.74	122.16
2850.53	113.373
2863.33	121.061
2876.12	112.917
2888.91	126.083
2901.71	122.025
2914.5	124.188
2927.29	128.693
2940.09	132.009
2952.88	125.575
2965.67	132.224
2978.46	121.998
2991.26	119.778
3004.05	118.747
3016.84	122.638
3029.64	118.746
3042.43	111.346
3055.22	108.299
3068.02	117.56
3080.81	110.082
3093.6	108.198
3106.4	107.594
3119.19	117.329
3131.98	109.186
3144.78	120.642
3157.57	109.408
3170.36	109.583
3183.16	110.175
3195.95	110.251
3208.74	111.464
3221.54	116.445
3234.33	105.989
3247.12	106.167
3259.91	105.931
3272.71	103.245
3285.5	103.73
3298.29	110.155
3311.09	102.731
3323.88	106.933
3336.67	98.3932
3349.47	108.036
3362.26	96.4513
3375.05	103.299
3387.85	104.925
3400.64	113.762
3413.43	103.154
3426.23	111.104
3439.02	109.838
3451.81	108.922
3464.61	113.311
3477.4	121.247
3490.19	115.428
3502.99	113.777
3515.78	115.042
3528.57	110.47
3541.36	118.416
3554.16	121.82
3566.95	122.639
3579.74	119.256
3592.54	131.93
3605.33	130.464
3618.12	128.944
3630.92	125.709
3643.71	134.003
3656.5	130.022
3669.3	129.855
3682.09	135.248
3694.88	132.75
3700	142.501