File: Example Data/Raman/Kara/12-20-10/C-Si-Graphene/1 bulk/CSGbulk1_5.txt
100	335.476
112.793	410.627
125.586	495.686
138.38	542.786
151.173	519.27
163.966	490.465
176.759	469.596
189.552	433.968
202.345	407.442
215.139	402.622
227.932	445.706
240.725	496.632
253.518	501.159
266.311	555.758
279.104	595.279
291.898	653.133
304.691	684.55
317.484	626.8
330.277	577.47
343.07	550.505
355.864	521.125
368.657	510.003
381.45	500.471
394.243	488.505
407.036	472.687
419.829	504.462
432.623	515.641
445.416	519.009
458.209	589.484
471.002	740.406
483.795	965.928
496.589	1452.6
509.382	2806.82
522.175	1994.5
534.968	593.597
547.761	329.689
560.554	270.268
573.348	247.988
586.141	253.818
598.934	265.615
611.727	266.534
624.52	256.4
637.313	247.137
650.107	244.573
662.9	226.999
675.693	224.278
688.486	212.421
701.279	211.561
714.073	202.599
726.866	201.087
739.659	211.431
752.452	219.517
765.245	229.7
778.038	228.17
790.832	241.831
803.625	229.686
816.418	234.117
829.211	245.358
842.004	245.313
854.797	248.003
867.591	255.906
880.384	264.306
893.177	292.268
905.97	329.22
918.763	369.055
931.557	386.576
944.35	381.335
957.143	365.453
969.936	316.979
982.729	268.354
995.522	235.589
1008.32	215.174
1021.11	196.59
1033.9	198.072
1046.7	190.51
1059.49	189.594
1072.28	190.408
1085.07	181.242
1097.87	192.76
1110.66	199.07
1123.45	199.473
1136.25	212.193
1149.04	231.585
1161.83	243.765
1174.63	246.338
1187.42	267.2
1200.21	282.294
1213.01	299.487
1225.8	326.189
1238.59	341.288
1251.39	360.65
1264.18	388.656
1276.97	398.615
1289.77	436.418
1302.56	464.01
1315.35	508.076
1328.15	534.879
1340.94	587.04
1353.73	611.56
1366.52	587.174
1379.32	553.808
1392.11	510.552
1404.9	482.984
1417.7	453.192
1430.49	439.47
1443.28	407.757
1456.08	393.254
1468.87	411.938
1481.66	382.614
1494.46	387.89
1507.25	372.331
1520.04	380.771
1532.84	400.206
1545.63	404.339
1558.42	452.636
1571.22	518.244
1584.01	593.986
1596.8	651.485
1609.59	635.717
1622.39	543.647
1635.18	424.63
1647.97	323.809
1660.77	264.429
1673.56	236.681
1686.35	211.872
1699.15	189.941
1711.94	185.882
1724.73	180.389
1737.53	174.534
1750.32	160.897
1763.11	152.596
1775.91	154.452
1788.7	156.625
1801.49	155.567
1814.29	152.113
1827.08	148.709
1839.87	152.864
1852.67	149.748
1865.46	149.44
1878.25	148.788
1891.04	150.796
1903.84	153.683
1916.63	151.493
1929.42	149.995
1942.22	150.231
1955.01	154.585
1967.8	149.494
1980.6	145.399
1993.39	153.68
2006.18	154.184
2018.98	158.683
2031.77	161.113
2044.56	155.559
2057.36	163.14
2070.15	156.384
2082.94	158.335
2095.74	156.129
2108.53	157.23
2121.32	163.538
2134.12	157.359
2146.91	168.927
2159.7	158.128
2172.49	171.185
2185.29	165.925
2198.08	165.856
2210.87	170.526
2223.67	172.684
2236.46	167.176
2249.25	179.458
2262.05	178.491
2274.84	175.78
2287.63	177.483
2300.43	182.886
2313.22	178.383
2326.01	184.517
2338.81	200.899
2351.6	192.245
2364.39	198.162
2377.19	200.429
2389.98	203.666
2402.77	201.869
2415.56	203.779
2428.36	226.719
2441.15	252.474
2453.94	237.258
2466.74	235.031
2479.53	221.883
2492.32	237.125
2505.12	227.603
2517.91	237.022
2530.7	246.675
2543.5	242.359
2556.29	241.431
2569.08	252.147
2581.88	247.863
2594.67	258.043
2607.46	260.164
2620.26	259.359
2633.05	261.467
2645.84	276.569
2658.64	277.649
2671.43	272.591
2684.22	285.858
2697.01	299.559
2709.81	291.44
2722.6	282.723
2735.39	300.965
2748.19	287.172
2760.98	295.359
2773.77	306.17
2786.57	298.498
2799.36	299.347
2812.15	315.831
2824.95	304.997
2837.74	312.285
2850.53	301.707
2863.33	321.375
2876.12	325.685
2888.91	331.894
2901.71	340.959
2914.5	339.982
2927.29	328.854
2940.09	348.345
2952.88	343.983
2965.67	344.666
2978.46	333.559
2991.26	332.193
3004.05	331.031
3016.84	336.807
3029.64	335.716
3042.43	335.274
3055.22	335.677
3068.02	333.257
3080.81	326.565
3093.6	321.063
3106.4	326.99
3119.19	331.225
3131.98	330.382
3144.78	334.73
3157.57	335.888
3170.36	341.607
3183.16	352.63
3195.95	355.354
3208.74	345.154
3221.54	347.369
3234.33	347.383
3247.12	348.448
3259.91	343.881
3272.71	345.562
3285.5	346.233
3298.29	349.376
3311.09	341.715
3323.88	360.042
3336.67	354.373
3349.47	354.759
3362.26	349.491
3375.05	365.379
3387.85	369.836
3400.64	365.713
3413.43	376.923
3426.23	368.128
3439.02	369.699
3451.81	364.482
3464.61	390.697
3477.4	382.425
3490.19	395.929
3502.99	385.97
3515.78	380.785
3528.57	412.817
3541.36	399.798
3554.16	395.415
3566.95	404.45
3579.74	414.363
3592.54	420.97
3605.33	432.301
3618.12	418.179
3630.92	440.628
3643.71	434.092
3656.5	441.359
3669.3	433.437
3682.09	447.674
3694.88	446.858
3700	449.914