File: Example Data/Raman/Kara/12-20-10/C-Si-Graphene/1 bulk/CSGbulk1_3.txt
100	148.561
112.793	178.6
125.586	221.716
138.38	233.461
151.173	224.481
163.966	209.08
176.759	204.576
189.552	178.402
202.345	180.039
215.139	181.961
227.932	190.992
240.725	209.449
253.518	215.545
266.311	242.928
279.104	259.564
291.898	275.659
304.691	271.91
317.484	255.355
330.277	239.038
343.07	228.596
355.864	218.264
368.657	207.454
381.45	205.425
394.243	205.916
407.036	206.181
419.829	203.107
432.623	214.826
445.416	216.879
458.209	238.675
471.002	278.245
483.795	373.005
496.589	559.717
509.382	1072.12
522.175	820.542
534.968	256.679
547.761	132.235
560.554	108.36
573.348	105.291
586.141	108.36
598.934	106.096
611.727	111.564
624.52	106.88
637.313	104.186
650.107	103.303
662.9	107.338
675.693	94.3516
688.486	92.9054
701.279	87.7434
714.073	80.6327
726.866	84.6875
739.659	90.2343
752.452	104.041
765.245	94.1016
778.038	96.3294
790.832	93.7139
803.625	94.0725
816.418	111.661
829.211	104.513
842.004	106.658
854.797	113.921
867.591	113.2
880.384	121.221
893.177	126.82
905.97	145.777
918.763	158
931.557	160.227
944.35	154.678
957.143	148.273
969.936	143.703
982.729	123.407
995.522	108.339
1008.32	101.834
1021.11	95.9701
1033.9	100.657
1046.7	94.0628
1059.49	95.2612
1072.28	97.1585
1085.07	105.36
1097.87	101.41
1110.66	103.905
1123.45	108.515
1136.25	115.368
1149.04	125.464
1161.83	137.512
1174.63	140.431
1187.42	148.127
1200.21	165.263
1213.01	172.148
1225.8	184.944
1238.59	205.751
1251.39	210.625
1264.18	224.626
1276.97	254.05
1289.77	268.272
1302.56	296.332
1315.35	306.504
1328.15	337.246
1340.94	349.652
1353.73	358.874
1366.52	357.788
1379.32	348.847
1392.11	318.532
1404.9	305.71
1417.7	281.078
1430.49	243.759
1443.28	245.166
1456.08	234.855
1468.87	225.317
1481.66	234.936
1494.46	226.662
1507.25	227.783
1520.04	228.369
1532.84	241.208
1545.63	254.175
1558.42	284.365
1571.22	315.478
1584.01	361.341
1596.8	380.681
1609.59	380.567
1622.39	326.674
1635.18	245.18
1647.97	177.004
1660.77	147.898
1673.56	131.88
1686.35	109.874
1699.15	96.1191
1711.94	88.7589
1724.73	89.7564
1737.53	78.9913
1750.32	71.1298
1763.11	75.8918
1775.91	76.1631
1788.7	68.8064
1801.49	66.0791
1814.29	66.0987
1827.08	64.7881
1839.87	59.4542
1852.67	61.1635
1865.46	66.2809
1878.25	64.9676
1891.04	63.8539
1903.84	57.482
1916.63	66.016
1929.42	64.5066
1942.22	59.6423
1955.01	62.4833
1967.8	63.135
1980.6	69.1836
1993.39	60.3631
2006.18	64.0131
2018.98	67.757
2031.77	62.5011
2044.56	62.9579
2057.36	66.2374
2070.15	63.3389
2082.94	63.2579
2095.74	60.1325
2108.53	61.1305
2121.32	66.6037
2134.12	67.1507
2146.91	63.417
2159.7	69.2088
2172.49	63.2073
2185.29	66.3762
2198.08	70.5649
2210.87	70.7766
2223.67	75.8517
2236.46	66.8963
2249.25	69.3968
2262.05	71.5618
2274.84	76.9108
2287.63	73.0493
2300.43	81.9188
2313.22	79.0315
2326.01	82.4405
2338.81	88.1634
2351.6	83.1155
2364.39	83.3006
2377.19	82.799
2389.98	86.4442
2402.77	95.7321
2415.56	94.3211
2428.36	99.3458
2441.15	116.301
2453.94	111.863
2466.74	105.369
2479.53	107.24
2492.32	97.1247
2505.12	100.323
2517.91	110.863
2530.7	110.406
2543.5	114.09
2556.29	109.046
2569.08	115.262
2581.88	121.373
2594.67	120.888
2607.46	121.489
2620.26	128.658
2633.05	127.725
2645.84	134.819
2658.64	127.193
2671.43	136.452
2684.22	139.494
2697.01	135.481
2709.81	141.747
2722.6	140.217
2735.39	140.356
2748.19	146.287
2760.98	142.49
2773.77	142.098
2786.57	149.492
2799.36	145.684
2812.15	143.666
2824.95	140.964
2837.74	146
2850.53	155.502
2863.33	154.198
2876.12	160.299
2888.91	162.081
2901.71	169.67
2914.5	155.919
2927.29	162.104
2940.09	168.194
2952.88	162.205
2965.67	167.017
2978.46	158.726
2991.26	160.35
3004.05	150.536
3016.84	157.355
3029.64	157.269
3042.43	154.63
3055.22	160.845
3068.02	154.307
3080.81	152.958
3093.6	154.261
3106.4	153.483
3119.19	158.555
3131.98	152.908
3144.78	144.375
3157.57	152.245
3170.36	151.873
3183.16	159.757
3195.95	157.505
3208.74	153.895
3221.54	155.321
3234.33	149.769
3247.12	159.39
3259.91	157.865
3272.71	153.335
3285.5	149.143
3298.29	155.916
3311.09	153.967
3323.88	152.445
3336.67	148.86
3349.47	160.566
3362.26	151.301
3375.05	159.435
3387.85	154.277
3400.64	157.614
3413.43	157.809
3426.23	161.414
3439.02	160.519
3451.81	157.688
3464.61	169.421
3477.4	167.139
3490.19	161.203
3502.99	169.488
3515.78	180.609
3528.57	177.56
3541.36	173.874
3554.16	173.538
3566.95	182.636
3579.74	181.48
3592.54	176.197
3605.33	193.097
3618.12	175.191
3630.92	192.231
3643.71	183.999
3656.5	184.85
3669.3	187.767
3682.09	187.362
3694.88	196.661
3700	188.518