File: Example Data/Raman/CNT - TIM/Raytheon/Al foil/2010/08-27-10/19 - top_2.txt
400	15.3036
406.069	19.7354
412.138	21.3942
418.208	17.2714
424.277	16.439
430.346	20.3843
436.415	13.3549
442.485	17.8218
448.554	18.7132
454.623	15.1128
460.692	13.2363
466.762	8.8762
472.831	12.3226
478.9	3.84156
484.969	14.2639
491.038	10.1899
497.108	6.94149
503.177	5.14992
509.246	2.79284
515.315	-1.61731
521.385	3.68872
527.454	-0.716449
533.523	-0.926151
539.592	-0.139032
545.661	-5.8242
551.731	-3.8196
557.8	-6.77402
563.869	-1.73356
569.938	1.6584
576.008	-2.43093
582.077	0.638738
588.146	3.28282
594.215	-0.790764
600.284	1.2447
606.354	-3.69717
612.423	-3.38932
618.492	-3.10355
624.561	-0.406119
630.631	-9.46256
636.7	-0.512947
642.769	1.35987
648.838	-1.21703
654.908	-1.52253
660.977	-0.394738
667.046	-3.68198
673.115	-7.00747
679.184	-4.68054
685.254	-3.75624
691.323	-0.874587
697.392	1.71088
703.461	-0.0158828
709.531	-3.28447
715.6	-2.32773
721.669	1.05947
727.738	3.22555
733.807	-6.27592
739.877	-0.488759
745.946	4.98941
752.015	4.98968
758.084	1.01723
764.154	2.29049
770.223	-1.45701
776.292	4.94651
782.361	6.68501
788.431	-2.75841
794.5	7.22557
800.569	10.5629
806.638	2.23861
812.707	7.15599
818.777	11.071
824.846	11.2767
830.915	6.54515
836.984	6.26438
843.054	6.07868
849.123	1.44284
855.192	9.10412
861.261	-0.00863498
867.331	3.69605
873.4	-2.53404
879.469	-4.39149
885.538	-0.680316
891.607	-13.6343
897.677	0.790205
903.746	-7.47582
909.815	-11.2603
915.884	-11.2796
921.954	-6.64577
928.023	-12.3291
934.092	-9.13237
940.161	-12.5547
946.23	-13.7313
952.3	-9.85929
958.369	-15.9937
964.438	-8.90138
970.507	-8.70016
976.577	-8.80219
982.646	-0.513861
988.715	2.9606
994.784	6.27344
1000.85	-1.11322
1006.92	3.39794
1012.99	5.54244
1019.06	-0.63298
1025.13	7.90702
1031.2	-1.12941
1037.27	-0.708906
1043.34	2.3976
1049.41	5.44429
1055.48	2.4559
1061.55	6.6817
1067.61	-1.11404
1073.68	-1.32652
1079.75	-10.5441
1085.82	0.273148
1091.89	-6.06543
1097.96	-1.7029
1104.03	-3.84683
1110.1	3.82464
1116.17	-0.836772
1122.24	-3.2536
1128.31	-0.155154
1134.38	-3.71648
1140.45	9.7736
1146.51	22.0325
1152.58	21.3738
1158.65	19.8079
1164.72	21.4991
1170.79	23.7208
1176.86	25.5235
1182.93	28.1845
1189	29.0719
1195.07	34.6981
1201.14	35.0251
1207.21	34.4346
1213.28	42.1458
1219.35	39.3449
1225.41	42.915
1231.48	56.7396
1237.55	66.1814
1243.62	52.8523
1249.69	82.8845
1255.76	78.4373
1261.83	95.9779
1267.9	116.159
1273.97	134.048
1280.04	162.384
1286.11	179.461
1292.18	193.003
1298.25	239.37
1304.31	271.825
1310.38	308.797
1316.45	339.315
1322.52	375.663
1328.59	437.916
1334.66	456.394
1340.73	500.247
1346.8	500.122
1352.87	522.573
1358.94	461.863
1365.01	441.45
1371.08	404.643
1377.15	343.226
1383.21	290.402
1389.28	252.954
1395.35	210.748
1401.42	186.722
1407.49	143.483
1413.56	120.137
1419.63	95.5071
1425.7	87.4099
1431.77	64.2999
1437.84	46.8645
1443.91	43.8739
1449.98	23.5401
1456.05	27.9935
1462.11	19.437
1468.18	14.6568
1474.25	-6.91579
1480.32	4.19385
1486.39	-3.27297
1492.46	9.39265
1498.53	-5.69859
1504.6	4.08339
1510.67	35.3172
1516.74	39.6594
1522.81	60.6569
1528.88	62.0003
1534.95	91.0673
1541.01	104.867
1547.08	145.719
1553.15	174.001
1559.22	214.197
1565.29	267.163
1571.36	332.443
1577.43	380.608
1583.5	447.549
1589.57	478.238
1595.64	520.07
1601.71	540.176
1607.78	532.499
1613.85	495.022
1619.91	458.901
1625.98	379.488
1632.05	307.689
1638.12	235.581
1644.19	191.684
1650.26	141.353
1656.33	101.437
1662.4	68.243
1668.47	42.9506
1674.54	29.8578
1680.61	11.789
1686.68	5.1383
1692.75	0.0204995
1698.81	-1.04709
1704.88	5.63385
1710.95	-0.805843
1717.02	2.20939
1723.09	4.63617
1729.16	4.81817
1735.23	3.18356
1741.3	4.00891
1747.37	2.93957
1753.44	5.49759
1759.51	3.77142
1765.58	4.53117
1771.65	2.59081
1777.71	-2.75329
1783.78	-5.80628
1789.85	-2.73925
1795.92	-5.16495
1801.99	-9.60741
1808.06	-10.1447
1814.13	-7.88783
1820.2	-4.78679
1826.27	-7.95334
1832.34	-6.57975
1838.41	-3.3932
1844.48	-7.31767
1850.55	-9.20431
1856.61	-9.21269
1862.68	-7.39939
1868.75	-4.53866
1874.82	-10.5695
1880.89	-5.74485
1886.96	-12.7731
1893.03	-5.04808
1899.1	-11.0113
1905.17	-7.00261
1911.24	-3.9279
1917.31	-5.05383
1923.38	-6.95155
1929.45	-7.16247
1935.51	-8.60189
1941.58	-4.63642
1947.65	-2.35203
1953.72	-3.07255
1959.79	4.60903
1965.86	-9.15813
1971.93	-6.5181
1978	-8.18569
1984.07	-0.96582
1990.14	-10.156
1996.21	-8.26134
2000	-14.4123