File: Example Data/Raman/CNT - TIM/Raytheon/Al foil/2010/08-27-10/19 - bottom_1.txt
400	18.9989
406.069	25.1772
412.138	18.7942
418.208	23.82
424.277	23.7871
430.346	22.4387
436.415	18.1751
442.485	17.3216
448.554	16.4487
454.623	18.4603
460.692	19.0687
466.762	16.3495
472.831	16.4845
478.9	16.8526
484.969	14.1998
491.038	8.02988
497.108	8.91506
503.177	4.0873
509.246	4.73442
515.315	5.00488
521.385	1.75249
527.454	9.04195
533.523	6.48804
539.592	3.79712
545.661	0.210887
551.731	-0.553086
557.8	6.32646
563.869	3.51503
569.938	2.02488
576.008	3.40569
582.077	9.34999
588.146	1.15549
594.215	2.24474
600.284	-1.50356
606.354	-0.936104
612.423	-0.0580754
618.492	3.62234
624.561	-0.600968
630.631	-9.80231
636.7	2.97842
642.769	1.8378
648.838	-3.1583
654.908	-3.15867
660.977	-2.45734
667.046	-0.402448
673.115	-0.138363
679.184	1.13622
685.254	-1.49419
691.323	-4.8739
697.392	-1.51975
703.461	5.13511
709.531	4.50619
715.6	-7.90016
721.669	-0.298009
727.738	1.58214
733.807	9.89382
739.877	0.0626121
745.946	7.18815
752.015	7.92535
758.084	9.07065
764.154	13.6818
770.223	10.2865
776.292	5.81776
782.361	14.1113
788.431	12.0078
794.5	11.3832
800.569	14.0391
806.638	10.6463
812.707	5.56184
818.777	12.7001
824.846	12.5783
830.915	13.2284
836.984	16.015
843.054	18.9912
849.123	14.4958
855.192	20.0872
861.261	8.11507
867.331	15.9753
873.4	10.9275
879.469	7.83185
885.538	8.75246
891.607	7.57391
897.677	1.05972
903.746	4.07696
909.815	-0.176647
915.884	-3.25828
921.954	1.46336
928.023	-6.26771
934.092	-3.03722
940.161	-4.78123
946.23	-1.18793
952.3	-1.43338
958.369	2.64304
964.438	3.45933
970.507	1.4083
976.577	-2.27192
982.646	1.87815
988.715	0.631192
994.784	-5.58142
1000.85	-1.85587
1006.92	-2.53362
1012.99	-3.9764
1019.06	3.89549
1025.13	-1.50918
1031.2	1.09356
1037.27	4.0717
1043.34	-4.11886
1049.41	-1.81204
1055.48	3.71381
1061.55	1.90465
1067.61	-0.010426
1073.68	4.73483
1079.75	-2.92417
1085.82	2.06208
1091.89	-0.739783
1097.96	-5.67059
1104.03	-4.78993
1110.1	-4.11424
1116.17	2.43165
1122.24	5.38166
1128.31	1.88394
1134.38	14.2249
1140.45	19.9651
1146.51	29.6122
1152.58	28.0038
1158.65	36.5211
1164.72	37.3454
1170.79	46.8607
1176.86	36.6986
1182.93	37.9408
1189	47.1137
1195.07	41.7596
1201.14	49.3221
1207.21	46.5808
1213.28	53.2711
1219.35	51.0214
1225.41	54.8713
1231.48	62.2975
1237.55	68.5576
1243.62	80.4764
1249.69	81.2794
1255.76	90.3285
1261.83	102.549
1267.9	114.297
1273.97	136.067
1280.04	151.656
1286.11	160.93
1292.18	176.098
1298.25	194.032
1304.31	236.941
1310.38	268.838
1316.45	310.341
1322.52	298.224
1328.59	335.712
1334.66	362.531
1340.73	365.887
1346.8	356.237
1352.87	347.677
1358.94	324.684
1365.01	300.05
1371.08	282.403
1377.15	251.563
1383.21	217.612
1389.28	182.552
1395.35	157.106
1401.42	136.186
1407.49	84.3584
1413.56	90.8864
1419.63	76.0748
1425.7	64.0566
1431.77	48.3519
1437.84	46.4727
1443.91	27.6583
1449.98	13.4665
1456.05	12.3119
1462.11	2.18497
1468.18	13.7833
1474.25	-6.06785
1480.32	-13.1796
1486.39	-6.63516
1492.46	4.15568
1498.53	0.666484
1504.6	-8.59062
1510.67	-1.98161
1516.74	19.9734
1522.81	24.2777
1528.88	43.2786
1534.95	51.1255
1541.01	77.8982
1547.08	76.8083
1553.15	110.413
1559.22	136.605
1565.29	180.728
1571.36	220.206
1577.43	267.708
1583.5	307.843
1589.57	354.853
1595.64	415.68
1601.71	443.096
1607.78	426.695
1613.85	396.515
1619.91	333.073
1625.98	268.527
1632.05	192.342
1638.12	148.722
1644.19	116.754
1650.26	82.7528
1656.33	51.115
1662.4	37.6375
1668.47	15.0095
1674.54	2.90724
1680.61	-4.18502
1686.68	-9.15935
1692.75	-9.41142
1698.81	-7.35788
1704.88	-5.85216
1710.95	-2.01964
1717.02	-5.60413
1723.09	-6.7606
1729.16	-2.30605
1735.23	-0.787281
1741.3	-1.95936
1747.37	4.59474
1753.44	2.17227
1759.51	3.37394
1765.58	2.28934
1771.65	2.93711
1777.71	6.46982
1783.78	5.2811
1789.85	2.20248
1795.92	6.32817
1801.99	5.1754
1808.06	5.39762
1814.13	3.05803
1820.2	3.28508
1826.27	0.116644
1832.34	5.51095
1838.41	0.550525
1844.48	-1.64809
1850.55	2.13108
1856.61	0.917359
1862.68	1.98418
1868.75	-1.73764
1874.82	1.80424
1880.89	-0.537859
1886.96	-0.980139
1893.03	-5.50679
1899.1	-3.86732
1905.17	-0.62485
1911.24	-2.83288
1917.31	2.04666
1923.38	0.182001
1929.45	-0.446391
1935.51	-2.36616
1941.58	2.77083
1947.65	3.30078
1953.72	-1.36549
1959.79	6.45442
1965.86	1.24
1971.93	7.21131
1978	1.73081
1984.07	3.438
1990.14	2.88292
1996.21	4.85934
2000	0.354219