File: Example Data/Raman/CNT - TIM/Raytheon/Al foil/2010/08-27-10/20 - top_1.txt
400	-11.1539
406.069	-2.69721
412.138	3.31963
418.208	-3.17372
424.277	-0.0401514
430.346	0.067331
436.415	-0.826541
442.485	9.58593e-05
448.554	-1.04753
454.623	-1.35287
460.692	-1.35655
466.762	-2.11824
472.831	-1.78793
478.9	-6.50913
484.969	-5.12098
491.038	-7.07247
497.108	-6.61872
503.177	-4.71679
509.246	-10.1736
515.315	-5.22464
521.385	-7.73595
527.454	0.391445
533.523	-3.52267
539.592	-10.1784
545.661	-15.6597
551.731	-19.495
557.8	-8.18179
563.869	-10.8446
569.938	-2.59628
576.008	-6.79929
582.077	-11.6535
588.146	-7.6394
594.215	-3.67522
600.284	-10.9606
606.354	-8.12772
612.423	-8.28383
618.492	-6.26156
624.561	-2.79494
630.631	-3.89675
636.7	-2.82088
642.769	-0.78369
648.838	-2.18243
654.908	-0.0898452
660.977	-3.51105
667.046	-3.70759
673.115	-2.5188
679.184	0.210701
685.254	-2.8093
691.323	-3.35297
697.392	0.571989
703.461	-6.31433
709.531	-2.04381
715.6	-0.394862
721.669	-5.55964
727.738	-2.67008
733.807	2.10534
739.877	2.55394
745.946	3.87097
752.015	1.89019
758.084	1.33628
764.154	13.3921
770.223	3.52376
776.292	9.19845
782.361	11.8651
788.431	2.88123
794.5	8.55248
800.569	6.99571
806.638	10.0224
812.707	13.8006
818.777	9.18197
824.846	11.3509
830.915	10.9325
836.984	20.7661
843.054	12.6638
849.123	8.67612
855.192	13.8168
861.261	7.64897
867.331	6.92027
873.4	0.00351311
879.469	6.12539
885.538	4.61498
891.607	1.59515
897.677	3.48515
903.746	6.96125
909.815	6.85635
915.884	0.514349
921.954	-0.949096
928.023	3.16562
934.092	2.85601
940.161	1.03386
946.23	0.673706
952.3	4.27572
958.369	-2.5548
964.438	-11.8037
970.507	-4.43118
976.577	-3.09019
982.646	-2.8785
988.715	-2.99505
994.784	-1.26717
1000.85	-6.58356
1006.92	-3.83481
1012.99	2.7026
1019.06	-3.54783
1025.13	-3.13619
1031.2	2.27369
1037.27	-7.22742
1043.34	5.5643
1049.41	-3.03026
1055.48	-6.4195
1061.55	2.89799
1067.61	-6.22734
1073.68	-3.46648
1079.75	-1.34485
1085.82	2.11334
1091.89	1.16786
1097.96	1.52342
1104.03	-4.1114
1110.1	7.85198
1116.17	5.07553
1122.24	6.10379
1128.31	4.04124
1134.38	15.225
1140.45	9.38385
1146.51	17.8323
1152.58	24.3543
1158.65	30.3881
1164.72	33.1558
1170.79	25.8257
1176.86	23.9277
1182.93	37.3985
1189	33.9162
1195.07	37.1436
1201.14	29.5755
1207.21	46.0228
1213.28	40.8153
1219.35	37.31
1225.41	31.975
1231.48	38.7455
1237.55	51.2853
1243.62	60.682
1249.69	56.2313
1255.76	76.993
1261.83	88.1157
1267.9	79.8256
1273.97	94.7002
1280.04	113.465
1286.11	130.967
1292.18	146.06
1298.25	154.052
1304.31	183.541
1310.38	208.917
1316.45	249.125
1322.52	279.015
1328.59	312.214
1334.66	306.379
1340.73	351.076
1346.8	342.463
1352.87	369.985
1358.94	339.846
1365.01	305.213
1371.08	260.405
1377.15	246.737
1383.21	214.504
1389.28	178.102
1395.35	156.897
1401.42	129.566
1407.49	102.872
1413.56	83.5327
1419.63	72.0401
1425.7	55.0594
1431.77	46.7117
1437.84	51.0767
1443.91	35.0242
1449.98	13.2445
1456.05	8.44447
1462.11	11.2418
1468.18	6.93887
1474.25	-12.7775
1480.32	10.9994
1486.39	-3.52076
1492.46	20.5594
1498.53	19.3111
1504.6	21.8261
1510.67	22.3788
1516.74	43.2751
1522.81	37.6767
1528.88	56.502
1534.95	70.1071
1541.01	90.0959
1547.08	103.369
1553.15	122.839
1559.22	154.881
1565.29	188.363
1571.36	223.222
1577.43	248.761
1583.5	291.318
1589.57	322.359
1595.64	366.978
1601.71	371.063
1607.78	367.524
1613.85	353.551
1619.91	310.315
1625.98	266.082
1632.05	222.27
1638.12	162.988
1644.19	134.895
1650.26	96.0578
1656.33	69.6654
1662.4	51.351
1668.47	33.756
1674.54	26.6924
1680.61	6.74865
1686.68	6.0678
1692.75	-0.110205
1698.81	-1.64546
1704.88	-0.193928
1710.95	-0.00917109
1717.02	1.25372
1723.09	1.45194
1729.16	0.567906
1735.23	-3.86591
1741.3	-2.74033
1747.37	-3.6344
1753.44	-1.04151
1759.51	-2.79725
1765.58	-3.16992
1771.65	0.510226
1777.71	-3.67629
1783.78	-1.96131
1789.85	3.17833
1795.92	1.03453
1801.99	1.94969
1808.06	-1.71918
1814.13	3.81576
1820.2	0.425484
1826.27	-1.35832
1832.34	1.73423
1838.41	3.02772
1844.48	0.684627
1850.55	1.52386
1856.61	-0.684209
1862.68	-7.82961
1868.75	0.513869
1874.82	-0.396173
1880.89	-2.18803
1886.96	-0.469477
1893.03	-5.65075
1899.1	-6.46981
1905.17	-3.55318
1911.24	0.279912
1917.31	-3.15244
1923.38	-5.81559
1929.45	-6.14663
1935.51	-5.08357
1941.58	-4.08867
1947.65	-3.54748
1953.72	-5.06165
1959.79	-7.82202
1965.86	-6.73874
1971.93	-8.16759
1978	-5.54997
1984.07	-4.88809
1990.14	-5.85861
1996.21	-2.52008
2000	-6.83463