File: Example Data/Raman/CNT - TIM/Raytheon/Al foil/2010/08-27-10/22 - top_3.txt
400	-0.513211
406.069	5.80888
412.138	-0.36826
418.208	-4.41694
424.277	3.25875
430.346	-4.04161
436.415	-0.22755
442.485	-3.5915
448.554	-2.888
454.623	-1.21359
460.692	-5.69709
466.762	0.0148944
472.831	-2.33919
478.9	-3.14497
484.969	-3.21457
491.038	-7.16595
497.108	-6.36096
503.177	-11.8889
509.246	-14.908
515.315	-14.9761
521.385	-11.8388
527.454	-9.09009
533.523	-7.5076
539.592	-8.57526
545.661	-10.6675
551.731	-9.74341
557.8	-13.2433
563.869	-4.98153
569.938	-10.3428
576.008	-8.22278
582.077	-10.9934
588.146	-5.67782
594.215	-9.08415
600.284	-9.95016
606.354	-4.06957
612.423	-6.3286
618.492	-7.64085
624.561	-4.10518
630.631	-8.14381
636.7	-6.82047
642.769	-2.90763
648.838	-4.37461
654.908	-6.69095
660.977	-2.59699
667.046	-1.74986
673.115	-1.60261
679.184	-3.17842
685.254	-6.35385
691.323	-8.83079
697.392	0.244875
703.461	-4.29428
709.531	-7.57355
715.6	-5.85019
721.669	-0.269553
727.738	2.04953
733.807	2.61109
739.877	-3.94582
745.946	6.91363
752.015	-1.20963
758.084	3.24981
764.154	0.287137
770.223	10.379
776.292	5.56698
782.361	8.27314
788.431	3.04578
794.5	12.9391
800.569	10.9061
806.638	10.4007
812.707	14.5748
818.777	15.5132
824.846	12.8757
830.915	18.0441
836.984	17.1747
843.054	14.7474
849.123	13.8675
855.192	18.5858
861.261	13.5441
867.331	14.0062
873.4	9.15056
879.469	6.47199
885.538	5.12282
891.607	6.41376
897.677	2.52835
903.746	11.391
909.815	2.04493
915.884	11.0823
921.954	8.12209
928.023	-0.476307
934.092	6.51818
940.161	6.91209
946.23	5.37331
952.3	4.67283
958.369	0.937904
964.438	-1.70116
970.507	-5.43508
976.577	-4.14117
982.646	-6.3434
988.715	-7.84336
994.784	-9.3534
1000.85	-17.3577
1006.92	-18.1707
1012.99	-9.20158
1019.06	-19.3128
1025.13	-16.8643
1031.2	-6.64364
1037.27	-13.0564
1043.34	-19.1432
1049.41	-13.6892
1055.48	-12.6596
1061.55	-10.5266
1067.61	-11.0865
1073.68	-10.3372
1079.75	-14.8793
1085.82	-17.8387
1091.89	-13.8029
1097.96	-16.5436
1104.03	-12.4339
1110.1	-16.0204
1116.17	-2.80607
1122.24	-19.0347
1128.31	-12.9782
1134.38	-7.13211
1140.45	-1.88045
1146.51	-2.52129
1152.58	3.47714
1158.65	4.17604
1164.72	12.2934
1170.79	13.3836
1176.86	12.228
1182.93	19.7512
1189	22.354
1195.07	26.9693
1201.14	25.0866
1207.21	33.4298
1213.28	21.4181
1219.35	20.601
1225.41	32.0681
1231.48	37.0703
1237.55	36.7176
1243.62	37.3065
1249.69	49.7057
1255.76	54.3736
1261.83	53.8716
1267.9	69.9839
1273.97	78.9267
1280.04	109.318
1286.11	109.667
1292.18	128.324
1298.25	142.324
1304.31	183.816
1310.38	218.228
1316.45	234.018
1322.52	285.457
1328.59	300.613
1334.66	330.907
1340.73	356.342
1346.8	372.721
1352.87	361.155
1358.94	359.641
1365.01	307.069
1371.08	275.617
1377.15	251.184
1383.21	193.844
1389.28	171.622
1395.35	146.943
1401.42	119.251
1407.49	117.478
1413.56	89.078
1419.63	89.9267
1425.7	57.8206
1431.77	45.3962
1437.84	33.1308
1443.91	23.019
1449.98	17.8475
1456.05	22.3646
1462.11	10.9264
1468.18	14.2931
1474.25	-0.721606
1480.32	3.38943
1486.39	-1.72133
1492.46	6.8173
1498.53	14.553
1504.6	16.2408
1510.67	30.105
1516.74	38.1951
1522.81	52.0719
1528.88	67.7634
1534.95	84.6793
1541.01	117.527
1547.08	133.333
1553.15	170.924
1559.22	211.989
1565.29	251.404
1571.36	302.307
1577.43	352.958
1583.5	386.588
1589.57	439.528
1595.64	460.744
1601.71	456.821
1607.78	449.841
1613.85	422.204
1619.91	375.966
1625.98	322.871
1632.05	255.656
1638.12	208.212
1644.19	168.541
1650.26	130.564
1656.33	95.5407
1662.4	69.8675
1668.47	43.1085
1674.54	31.9394
1680.61	23.1875
1686.68	14.8337
1692.75	12.3302
1698.81	1.53217
1704.88	3.57411
1710.95	0.720922
1717.02	-3.95091
1723.09	-2.18805
1729.16	2.29125
1735.23	-1.77063
1741.3	0.500072
1747.37	1.59171
1753.44	-0.642756
1759.51	-0.810471
1765.58	3.1598
1771.65	0.737218
1777.71	2.30395
1783.78	-0.676652
1789.85	-1.2621
1795.92	3.17883
1801.99	1.07619
1808.06	2.72029
1814.13	-3.38586
1820.2	0.80868
1826.27	3.47094
1832.34	1.62636
1838.41	3.69261
1844.48	6.88325
1850.55	9.21391
1856.61	6.34509
1862.68	-2.73831
1868.75	-3.58117
1874.82	1.09383
1880.89	-1.88274
1886.96	0.196198
1893.03	-5.15564
1899.1	-5.9366
1905.17	-2.49796
1911.24	-5.18009
1917.31	-5.63052
1923.38	-5.46054
1929.45	-2.41531
1935.51	-6.17796
1941.58	0.942493
1947.65	0.485714
1953.72	-9.0774
1959.79	-2.70936
1965.86	-7.30719
1971.93	-7.80981
1978	2.67138
1984.07	-4.97788
1990.14	0.535957
1996.21	-4.36503
2000	-6.29547