File: Example Data/Raman/CNT - TIM/Raytheon/Al foil/2010/08-27-10/22 - bottom.txt
400	14.0782
406.069	10.2862
412.138	6.91773
418.208	6.19909
424.277	5.28102
430.346	11.9301
436.415	9.98033
442.485	7.38259
448.554	9.67866
454.623	8.19853
460.692	2.23044
466.762	0.308544
472.831	4.93131
478.9	4.88207
484.969	11.8431
491.038	-1.48693
497.108	-0.496088
503.177	-4.71313
509.246	-7.30169
515.315	-3.00081
521.385	-8.73509
527.454	-3.85244
533.523	-0.709384
539.592	-4.13554
545.661	-4.05447
551.731	-3.65811
557.8	-4.13265
563.869	-1.48303
569.938	-3.32491
576.008	1.22122
582.077	-2.10181
588.146	1.43306
594.215	-0.982734
600.284	-5.32845
606.354	2.17909
612.423	-1.51815
618.492	2.41745
624.561	-1.41063
630.631	0.286316
636.7	1.62945
642.769	-1.55645
648.838	-1.5383
654.908	5.35
660.977	2.99049
667.046	4.8851
673.115	3.37128
679.184	5.7014
685.254	5.82301
691.323	-2.09287
697.392	6.00167
703.461	3.80996
709.531	3.75338
715.6	2.76789
721.669	4.44572
727.738	3.13081
733.807	3.24949
739.877	5.58404
745.946	1.74318
752.015	12.0591
758.084	8.30282
764.154	5.08924
770.223	9.66443
776.292	7.29153
782.361	7.75696
788.431	7.78887
794.5	12.4298
800.569	11.0955
806.638	14.0581
812.707	17.1641
818.777	9.2066
824.846	21.7644
830.915	17.2449
836.984	11.2652
843.054	13.7693
849.123	21.5902
855.192	15.9319
861.261	20.9478
867.331	17.7767
873.4	11.6846
879.469	8.60679
885.538	8.85842
891.607	9.01029
897.677	11.1738
903.746	8.74833
909.815	1.91408
915.884	6.13612
921.954	3.30736
928.023	1.08732
934.092	8.64784
940.161	-0.332618
946.23	-5.37591
952.3	-0.35632
958.369	-0.929701
964.438	0.799806
970.507	-0.305323
976.577	0.719782
982.646	-2.97162
988.715	4.26344
994.784	-1.09141
1000.85	-0.0766786
1006.92	-6.22981
1012.99	1.87312
1019.06	1.99297
1025.13	1.0269
1031.2	3.44794
1037.27	2.62344
1043.34	5.44113
1049.41	3.86079
1055.48	-2.32205
1061.55	-6.3706
1067.61	1.0614
1073.68	2.26734
1079.75	-1.25233
1085.82	-3.5533
1091.89	-2.0486
1097.96	-0.971246
1104.03	4.07276
1110.1	4.8738
1116.17	4.44984
1122.24	7.72114
1128.31	-0.377948
1134.38	9.75235
1140.45	15.8891
1146.51	25.2598
1152.58	28.9551
1158.65	34.9709
1164.72	35.335
1170.79	44.2048
1176.86	47.4149
1182.93	39.3096
1189	46.6157
1195.07	48.773
1201.14	47.5292
1207.21	46.9654
1213.28	49.3352
1219.35	60.5093
1225.41	55.3183
1231.48	58.169
1237.55	66.885
1243.62	66.4429
1249.69	79.8265
1255.76	87.1786
1261.83	91.836
1267.9	97.6948
1273.97	105.498
1280.04	122.01
1286.11	137.23
1292.18	154.792
1298.25	179.831
1304.31	191.96
1310.38	217.876
1316.45	245.722
1322.52	254.352
1328.59	273.273
1334.66	264.914
1340.73	271.579
1346.8	285.763
1352.87	264.648
1358.94	263.542
1365.01	244.777
1371.08	216.513
1377.15	201.878
1383.21	165.347
1389.28	157.732
1395.35	128.449
1401.42	104.297
1407.49	86.753
1413.56	65.0589
1419.63	65.7877
1425.7	48.4529
1431.77	42.1059
1437.84	27.162
1443.91	12.2668
1449.98	14.9581
1456.05	9.8702
1462.11	2.14293
1468.18	7.94196
1474.25	8.55124
1480.32	10.3106
1486.39	0.754333
1492.46	3.77408
1498.53	-11.9566
1504.6	18.3883
1510.67	1.74054
1516.74	10.234
1522.81	22.4299
1528.88	42.8837
1534.95	38.9062
1541.01	50.0425
1547.08	74.7468
1553.15	105.294
1559.22	118.574
1565.29	146.373
1571.36	182.305
1577.43	213.851
1583.5	258.066
1589.57	293.446
1595.64	325.958
1601.71	310.085
1607.78	331.839
1613.85	308.01
1619.91	270.45
1625.98	209.524
1632.05	155.6
1638.12	118.24
1644.19	94.9766
1650.26	71.4198
1656.33	49.0171
1662.4	35.1354
1668.47	18.4391
1674.54	6.08184
1680.61	-0.398659
1686.68	0.0327277
1692.75	-4.27696
1698.81	-4.68991
1704.88	2.94271
1710.95	2.38795
1717.02	3.68542
1723.09	2.99822
1729.16	2.24956
1735.23	0.762795
1741.3	0.634191
1747.37	-0.498018
1753.44	3.66498
1759.51	1.04979
1765.58	4.52269
1771.65	5.38153
1777.71	3.32703
1783.78	3.87945
1789.85	6.64909
1795.92	3.65892
1801.99	3.93998
1808.06	4.15704
1814.13	2.70844
1820.2	3.4821
1826.27	4.59073
1832.34	7.41423
1838.41	0.125011
1844.48	1.49769
1850.55	5.42904
1856.61	9.32247
1862.68	5.10451
1868.75	2.53211
1874.82	4.2997
1880.89	1.01377
1886.96	1.46158
1893.03	6.24503
1899.1	-0.439785
1905.17	-1.41268
1911.24	0.716194
1917.31	4.65796
1923.38	-0.35902
1929.45	2.63276
1935.51	-3.09185
1941.58	2.82216
1947.65	-0.733391
1953.72	2.9067
1959.79	2.20545
1965.86	-3.47045
1971.93	-1.71403
1978	-0.309624
1984.07	-0.502632
1990.14	1.60065
1996.21	-1.33084
2000	-0.592487