File: Example Data/Raman/CNT - TIM/Raytheon/Cu foil/09-29-10/0 W_1.txt
300	40.8974
305.296	37.5196
310.591	34.7323
315.887	36.0486
321.183	33.877
326.478	29.6978
331.774	33.9745
337.07	36.0316
342.365	31.1623
347.661	26.1612
352.957	21.4742
358.252	23.0808
363.548	21.452
368.844	22.6001
374.139	25.8162
379.435	21.5832
384.731	20.1911
390.026	23.4119
395.322	18.674
400.618	24.3269
405.914	19.7646
411.209	18.8029
416.505	18.3232
421.801	23.6055
427.096	18.2639
432.392	21.8762
437.688	15.0934
442.983	6.22587
448.279	4.88202
453.575	9.28856
458.87	13.6227
464.166	16.5434
469.462	8.96161
474.757	6.58339
480.053	-0.197852
485.349	3.82607
490.644	3.10912
495.94	8.56482
501.236	5.32416
506.531	-3.03497
511.827	-2.54571
517.123	-4.17308
522.418	6.21655
527.714	3.47206
533.01	1.79664
538.305	-3.11611
543.601	-4.29547
548.897	-3.67867
554.192	-3.51059
559.488	-1.51457
564.784	-4.4722
570.079	-2.2007
575.375	-1.6273
580.671	-8.48155
585.966	0.220525
591.262	-4.62067
596.558	-6.76144
601.854	-1.91575
607.149	-2.84907
612.445	-6.46318
617.741	-0.505669
623.036	0.727782
628.332	-1.65521
633.628	-2.59685
638.923	1.33966
644.219	-0.33455
649.515	4.56631
654.81	-4.11342
660.106	-6.34507
665.402	3.52646
670.697	3.15729
675.993	-1.18692
681.289	-0.179875
686.584	-6.19649
691.88	-5.42346
697.176	-6.30956
702.471	1.96894
707.767	-6.12684
713.063	3.14431
718.358	0.222341
723.654	-2.64043
728.95	1.41225
734.245	4.53001
739.541	0.884808
744.837	0.657597
750.132	1.43034
755.428	3.88742
760.724	4.90619
766.019	4.62741
771.315	5.8896
776.611	9.51893
781.906	7.16172
787.202	-2.01436
792.498	3.84868
797.793	5.09129
803.089	5.92081
808.385	8.94509
813.68	7.94038
818.976	14.0076
824.272	9.8222
829.568	2.72052
834.863	10.8523
840.159	10.1818
845.455	4.15163
850.75	14.1789
856.046	6.95819
861.342	6.37363
866.637	12.241
871.933	8.75318
877.229	7.9692
882.524	4.92781
887.82	-5.40737
893.116	-0.340373
898.411	-1.70765
903.707	-6.54001
909.003	-3.26939
914.298	6.42895
919.594	-6.00237
924.89	-9.03943
930.185	-4.33784
935.481	-3.23775
940.777	-9.41757
946.072	-6.75454
951.368	-9.34262
956.664	3.74951
961.959	-9.11586
967.255	-4.95387
972.551	-13.469
977.846	-1.89623
983.142	-8.38282
988.438	-4.99853
993.733	-8.73646
999.029	-2.57806
1004.32	-2.90544
1009.62	-7.43888
1014.92	-0.102596
1020.21	-1.36972
1025.51	-2.66407
1030.8	-3.78225
1036.1	1.76791
1041.39	-0.118914
1046.69	4.58508
1051.99	5.40087
1057.28	4.34281
1062.58	-1.20425
1067.87	-4.77493
1073.17	-0.154135
1078.46	0.68095
1083.76	1.5614
1089.06	-3.32214
1094.35	-1.01549
1099.65	1.19441
1104.94	3.8226
1110.24	-0.368547
1115.53	9.29739
1120.83	12.2584
1126.13	14.4485
1131.42	6.86565
1136.72	11.0422
1142.01	9.8994
1147.31	15.4171
1152.6	24.7594
1157.9	32.2157
1163.2	36.8437
1168.49	35.2979
1173.79	40.3384
1179.08	29.9856
1184.38	26.6719
1189.67	34.2841
1194.97	35.8831
1200.26	34.9079
1205.56	47.2968
1210.86	33.6375
1216.15	58.4607
1221.45	55.4248
1226.74	68.8606
1232.04	62.6988
1237.33	67.7175
1242.63	75.5111
1247.93	88.3406
1253.22	107.61
1258.52	111.695
1263.81	114.544
1269.11	133.36
1274.4	161.17
1279.7	171.636
1285	192.317
1290.29	208.204
1295.59	228.898
1300.88	259.994
1306.18	280.932
1311.47	323.326
1316.77	342.196
1322.07	382.566
1327.36	412.723
1332.66	427.829
1337.95	441.841
1343.25	443.439
1348.54	429.796
1353.84	435.115
1359.14	414.5
1364.43	383.065
1369.73	364.286
1375.02	314.555
1380.32	282.067
1385.61	270.424
1390.91	228.802
1396.2	198.697
1401.5	161.24
1406.8	149.911
1412.09	113.169
1417.39	94.7577
1422.68	72.0525
1427.98	63.342
1433.27	44.061
1438.57	32.569
1443.87	32.2628
1449.16	23.9945
1454.46	6.70137
1459.75	11.2208
1465.05	-7.24883
1470.34	6.60652
1475.64	7.42278
1480.94	-4.69248
1486.23	3.76483
1491.53	8.63536
1496.82	9.97639
1502.12	6.42975
1507.41	30.6394
1512.71	33.3874
1518.01	40.9791
1523.3	59.9033
1528.6	85.9454
1533.89	96.6639
1539.19	102.959
1544.48	140.618
1549.78	151.334
1555.08	191.472
1560.37	242.768
1565.67	280.696
1570.96	338.762
1576.26	386.529
1581.55	435.883
1586.85	481.572
1592.14	504.06
1597.44	506.004
1602.74	494.065
1608.03	506.327
1613.33	462.423
1618.62	406.128
1623.92	336.91
1629.21	272.015
1634.51	202.059
1639.81	169.717
1645.1	135.083
1650.4	102.655
1655.69	64.6174
1660.99	47.2472
1666.28	37.6008
1671.58	30.0587
1676.88	19.4311
1682.17	9.71298
1687.47	-0.00430117
1692.76	-10.9886
1698.06	-3.78178
1703.35	-3.54247
1708.65	-9.4913
1713.95	-0.62647
1719.24	-3.92566
1724.54	-2.6423
1729.83	11.8328
1735.13	1.92279
1740.42	1.18551
1745.72	-7.43796
1751.02	4.08665
1756.31	-6.90276
1761.61	-9.25848
1766.9	0.514526
1772.2	1.69139
1777.49	5.0669
1782.79	4.54652
1788.08	4.70811
1793.38	2.49141
1798.68	4.22011
1800	2.84163