File: Example Data/Raman/CNT - TIM/Raytheon/Cu foil/09-29-10/60 W_1.txt
300	58.2382
306.533	66.3601
313.067	65.8735
319.6	68.2413
326.134	58.9958
332.667	63.667
339.201	62.8881
345.734	57.4123
352.267	56.43
358.801	63.7426
365.334	67.0458
371.868	53.1096
378.401	51.2523
384.935	62.4928
391.468	55.2649
398.002	55.2213
404.535	50.2566
411.068	52.8495
417.602	54.5843
424.135	46.3289
430.669	44.8406
437.202	43.5971
443.736	39.3861
450.269	37.808
456.802	41.0776
463.336	43.6014
469.869	33.5817
476.403	39.0408
482.936	30.1858
489.47	28.1744
496.003	19.6115
502.536	19.4344
509.07	16.3751
515.603	19.2132
522.137	17.2916
528.67	19.317
535.204	17.7958
541.737	8.30975
548.271	-0.967358
554.804	-2.1347
561.337	5.16958
567.871	6.21319
574.404	4.32395
580.938	11.56
587.471	7.77112
594.005	2.99944
600.538	-1.24351
607.071	13.5218
613.605	-1.4749
620.138	8.04969
626.672	6.16085
633.205	16.0861
639.739	12.3153
646.272	21.0161
652.806	14.1321
659.339	14.5427
665.872	9.66477
672.406	0.117905
678.939	2.35232
685.473	5.22583
692.006	9.22263
698.54	-1.96693
705.073	1.0091
711.606	-1.36637
718.14	9.90016
724.673	-1.77751
731.207	4.62312
737.74	12.0246
744.274	15.4246
750.807	8.39727
757.341	3.6445
763.874	10.9326
770.407	14.8028
776.941	19.2694
783.474	7.78056
790.008	6.05806
796.541	1.54647
803.075	9.30659
809.608	1.74654
816.141	5.24971
822.675	2.78269
829.208	12.594
835.742	4.44614
842.275	10.6933
848.809	7.37845
855.342	22.656
861.875	12.0791
868.409	8.09525
874.942	12.4237
881.476	7.65978
888.009	11.8345
894.543	17.2628
901.076	12.8146
907.61	-2.18306
914.143	3.36727
920.676	7.32808
927.21	-2.09853
933.743	7.25862
940.277	10.816
946.81	-3.85081
953.344	1.30527
959.877	4.04584
966.41	-2.545
972.944	15.3993
979.477	-2.20163
986.011	-9.1973
992.544	5.1534
999.078	-3.72818
1005.61	-5.29385
1012.14	4.11029
1018.68	-6.84371
1025.21	2.86472
1031.74	2.9679
1038.28	4.93198
1044.81	5.30284
1051.35	-0.84724
1057.88	5.50179
1064.41	1.40749
1070.95	-11.6294
1077.48	7.47389
1084.01	-7.78864
1090.55	-21.3991
1097.08	-9.12827
1103.61	-14.78
1110.15	-5.39877
1116.68	4.65266
1123.21	17.3504
1129.75	-3.25809
1136.28	-19.2454
1142.81	-8.67486
1149.35	-10.0364
1155.88	-10.142
1162.41	-5.88572
1168.95	-6.76657
1175.48	-18.2323
1182.01	-14.7223
1188.55	-18.6181
1195.08	-12.0119
1201.61	-6.27275
1208.15	-10.2223
1214.68	12.1704
1221.21	22.9224
1227.75	25.9693
1234.28	36.1143
1240.81	58.1904
1247.35	75.0118
1253.88	86.8338
1260.42	118.752
1266.95	133.862
1273.48	159.177
1280.02	197.73
1286.55	237.997
1293.08	299.105
1299.62	345.219
1306.15	426.448
1312.68	516.627
1319.22	655.145
1325.75	766.862
1332.28	931.61
1338.82	1121.74
1345.35	1272.13
1351.88	1380.35
1358.42	1354.02
1364.95	1229.96
1371.48	1059.9
1378.02	877.877
1384.55	703.973
1391.08	563.691
1397.62	448.881
1404.15	345.828
1410.68	288.532
1417.22	237.137
1423.75	156.373
1430.28	135.555
1436.82	87.2945
1443.35	59.8929
1449.88	53.3822
1456.42	18.2021
1462.95	15.9153
1469.48	-5.48167
1476.02	-4.84912
1482.55	-10.8793
1489.09	13.3506
1495.62	21.2275
1502.15	25.7368
1508.69	49.562
1515.22	60.1035
1521.75	73.8754
1528.29	109.493
1534.82	128.482
1541.35	171.097
1547.89	224.907
1554.42	288.616
1560.95	387.689
1567.49	459.651
1574.02	593.626
1580.55	743.315
1587.09	913.51
1593.62	1035.48
1600.15	1088.79
1606.69	1037.55
1613.22	980.168
1619.75	934.512
1626.29	862.919
1632.82	674.869
1639.35	442.88
1645.89	276.409
1652.42	190.337
1658.95	118.145
1665.49	79.9482
1672.02	45.2934
1678.55	30.6237
1685.09	8.92635
1691.62	16.2066
1698.16	9.13097
1704.69	-7.856
1711.22	-8.49449
1717.76	-7.8217
1724.29	-4.60682
1730.82	-19.6206
1737.36	-4.87616
1743.89	-19.3418
1750.42	-13.6926
1756.96	-6.16229
1763.49	-1.1041
1770.02	0.876704
1776.56	-1.37374
1783.09	-1.97903
1789.62	-7.04895
1796.16	-2.77529
1802.69	-1.53881
1809.22	-8.05003
1815.76	-4.65317
1822.29	-2.72623
1828.82	1.61025
1835.36	3.20011
1841.89	8.98048
1848.42	-3.27503
1854.96	-1.1448
1861.49	0.0315759
1868.02	-2.82133
1874.56	8.28633
1881.09	-0.64547
1887.62	-11.3472
1894.16	-1.13416
1900.69	-13.618
1907.23	-3.25125
1913.76	-9.69454
1920.29	-6.38273
1926.83	-14.298
1933.36	6.07883
1939.89	1.87253
1946.43	-4.1557
1952.96	-2.04373
1959.49	-2.54538
1966.03	-5.93536
1972.56	2.13093
1979.09	3.41675
1985.63	-3.56527
1992.16	2.49908
1998.69	3.72616
2000	-0.962725