File: Example Data/Raman/CNT - TIM/Raytheon/Cu foil/09-29-10/70 W_1.txt
300	49.6609
306.533	48.4397
313.067	47.1091
319.6	52.0272
326.134	46.5606
332.667	52.9698
339.201	49.3373
345.734	39.3781
352.267	40.879
358.801	50.1996
365.334	44.5253
371.868	42.7317
378.401	36.7705
384.935	40.9966
391.468	25.7493
398.002	41.9459
404.535	32.4236
411.068	30.0261
417.602	30.0198
424.135	24.2339
430.669	30.3173
437.202	29.0537
443.736	34.1589
450.269	28.2428
456.802	30.7387
463.336	15.883
469.869	22.0126
476.403	13.4123
482.936	3.65922
489.47	14.9321
496.003	0.158705
502.536	2.3078
509.07	0.412799
515.603	5.79473
522.137	2.4894
528.67	-3.32654
535.204	4.37137
541.737	-10.4568
548.271	2.00138
554.804	3.23477
561.337	-13.1868
567.871	1.89118
574.404	-2.88746
580.938	-3.58247
587.471	-2.52249
594.005	-13.1473
600.538	-5.23073
607.071	2.53816
613.605	-6.09865
620.138	-3.69049
626.672	2.07646
633.205	-0.731311
639.739	5.58521
646.272	6.74239
652.806	-2.78455
659.339	1.63059
665.872	-3.46271
672.406	-2.94979
678.939	-1.55769
685.473	-3.98889
692.006	5.38754
698.54	-0.98055
705.073	-1.59798
711.606	0.717562
718.14	4.06854
724.673	3.22138
731.207	8.07388
737.74	6.05761
744.274	-5.66737
750.807	3.05519
757.341	-1.61087
763.874	6.6991
770.407	0.90465
776.941	1.43026
783.474	12.2568
790.008	-0.388229
796.541	0.80871
803.075	-2.45797
809.608	6.62332
816.141	11.4391
822.675	4.40769
829.208	16.1709
835.742	4.41039
842.275	5.44851
848.809	10.0772
855.342	19.45
861.875	8.7278
868.409	13.4
874.942	8.95306
881.476	10.4038
888.009	5.34485
894.543	8.38175
901.076	5.27642
907.61	8.80783
914.143	3.1215
920.676	5.16065
927.21	9.48814
933.743	12.8954
940.277	15.6307
946.81	13.4821
953.344	6.01027
959.877	6.69634
966.41	2.12719
972.944	0.98375
979.477	14.338
986.011	-2.85677
992.544	3.23942
999.078	-0.0741366
1005.61	3.25184
1012.14	1.69139
1018.68	0.172108
1025.21	12.3502
1031.74	2.27218
1038.28	3.02756
1044.81	13.643
1051.35	6.78517
1057.88	10.0346
1064.41	16.0846
1070.95	12.3106
1077.48	-5.12388
1084.01	-0.702797
1090.55	-6.95617
1097.08	0.853528
1103.61	-6.39048
1110.15	-0.291397
1116.68	7.99891
1123.21	-8.5282
1129.75	3.89325
1136.28	-0.0537079
1142.81	-6.03634
1149.35	11.3531
1155.88	-6.3099
1162.41	10.7486
1168.95	2.50785
1175.48	-5.85489
1182.01	8.0956
1188.55	6.70273
1195.08	13.8495
1201.61	18.3594
1208.15	18.8476
1214.68	21.2787
1221.21	22.9421
1227.75	40.4358
1234.28	42.7168
1240.81	63.5172
1247.35	70.2117
1253.88	101.52
1260.42	105.93
1266.95	138.163
1273.48	162.053
1280.02	188.681
1286.55	221.845
1293.08	273.147
1299.62	332.497
1306.15	384.17
1312.68	449.312
1319.22	535.977
1325.75	646.375
1332.28	754.994
1338.82	870.818
1345.35	939.676
1351.88	993.852
1358.42	954.159
1364.95	850.825
1371.48	752.475
1378.02	645.477
1384.55	522.445
1391.08	436.445
1397.62	358.777
1404.15	283.348
1410.68	241.673
1417.22	178.132
1423.75	139.603
1430.28	114.136
1436.82	84.71
1443.35	58.8798
1449.88	47.671
1456.42	30.9212
1462.95	18.9878
1469.48	5.19543
1476.02	0.404986
1482.55	-0.906032
1489.09	7.53913
1495.62	-10.6564
1502.15	7.3155
1508.69	29.8661
1515.22	38.6388
1521.75	78.1852
1528.29	90.2114
1534.82	112.333
1541.35	150.991
1547.89	196.718
1554.42	243.08
1560.95	322.141
1567.49	394.136
1574.02	497.516
1580.55	630.406
1587.09	730.393
1593.62	794.411
1600.15	797.976
1606.69	786.194
1613.22	755.301
1619.75	692.717
1626.29	555.717
1632.82	422.41
1639.35	290.872
1645.89	177.98
1652.42	118.611
1658.95	80.1679
1665.49	40.601
1672.02	11.6618
1678.55	14.2134
1685.09	19.2622
1691.62	-4.65679
1698.16	-3.52497
1704.69	9.43565
1711.22	-4.14353
1717.76	2.42881
1724.29	2.41021
1730.82	1.63081
1737.36	1.12199
1743.89	-1.12704
1750.42	2.54116
1756.96	-0.396787
1763.49	8.84256
1770.02	4.74786
1776.56	4.06225
1783.09	7.61024
1789.62	6.98858
1796.16	-0.802925
1802.69	-4.38422
1809.22	7.21447
1815.76	-0.308605
1822.29	8.58368
1828.82	0.595766
1835.36	0.373611
1841.89	1.7113
1848.42	10.5772
1854.96	-3.10729
1861.49	8.24096
1868.02	13.2148
1874.56	7.8564
1881.09	-3.98462
1887.62	-8.5345
1894.16	2.17117
1900.69	-4.71615
1907.23	11.1621
1913.76	1.44461
1920.29	-1.76137
1926.83	3.32509
1933.36	0.323847
1939.89	6.88256
1946.43	-1.90464
1952.96	20.3408
1959.49	14.5153
1966.03	13.0618
1972.56	7.3331
1979.09	20.1867
1985.63	17.2391
1992.16	13.5833
1998.69	19.9215
2000	13.1148