File: Example Data/Raman/CNT - TIM/Raytheon/Microwave/Test 2 - From Anu/Batch 23 - noMW - bottom.txt
300	348.094
306.115	390.18
312.23	361.415
318.345	363.924
324.46	372.549
330.576	369.582
336.691	364.694
342.806	361.247
348.921	368.353
355.036	358.754
361.151	368.271
367.266	341.853
373.381	340.817
379.496	344.775
385.612	343.073
391.727	342.626
397.842	343.891
403.957	333.305
410.072	345.166
416.187	348.747
422.302	330.562
428.417	321.611
434.532	326.748
440.647	323.55
446.763	321.627
452.878	335.706
458.993	319.492
465.108	316.128
471.223	305.191
477.338	302.914
483.453	293.13
489.568	297.196
495.683	272.261
501.799	283.938
507.914	286.005
514.029	282.869
520.144	275.147
526.259	270.546
532.374	284.011
538.489	275.139
544.604	270.995
550.719	283.048
556.835	281.368
562.95	284.251
569.065	295.243
575.18	281.939
581.295	282.213
587.41	288.609
593.525	287.389
599.64	282.552
605.755	286.728
611.87	288.833
617.986	293.234
624.101	298.07
630.216	277.137
636.331	299.128
642.446	294.747
648.561	307.812
654.676	307.61
660.791	308.362
666.906	307.135
673.022	301.495
679.137	314.643
685.252	308.773
691.367	303.793
697.482	304.798
703.597	314.567
709.712	317.161
715.827	325.929
721.942	320.153
728.058	331.452
734.173	324.901
740.288	320.504
746.403	337.532
752.518	340.724
758.633	341.824
764.748	345.148
770.863	341.303
776.978	352.024
783.094	347.665
789.209	358.709
795.324	367.748
801.439	362.494
807.554	369.344
813.669	370.184
819.784	371.112
825.899	380.004
832.014	381.585
838.13	383.669
844.245	372.334
850.36	390.188
856.475	380.885
862.59	384.102
868.705	351.401
874.82	367.018
880.935	358.75
887.05	354.185
893.165	349.131
899.281	350.202
905.396	330.821
911.511	337.136
917.626	337.446
923.741	332.027
929.856	332.7
935.971	339.098
942.086	339.261
948.201	340.573
954.317	337.09
960.432	334.747
966.547	334.778
972.662	338.037
978.777	342.518
984.892	354.396
991.007	371.073
997.122	370.33
1003.24	389.964
1009.35	397.021
1015.47	407.465
1021.58	419.527
1027.7	432.585
1033.81	450.699
1039.93	440.9
1046.04	457.305
1052.16	470.279
1058.27	476.321
1064.39	477.503
1070.5	494.995
1076.62	496.808
1082.73	516.4
1088.85	537.908
1094.96	543.653
1101.08	554.795
1107.19	565.063
1113.31	593.696
1119.42	582.255
1125.54	603.668
1131.65	616.323
1137.77	633.263
1143.88	652.65
1150	681.297
1156.12	685.299
1162.23	724.648
1168.35	732.817
1174.46	744.625
1180.58	762.557
1186.69	760.233
1192.81	780.074
1198.92	792.422
1205.04	829.956
1211.15	835.445
1217.27	878.251
1223.38	885.378
1229.5	932.074
1235.61	950.418
1241.73	1008.47
1247.84	1075.63
1253.96	1105.94
1260.07	1156.46
1266.19	1211.97
1272.3	1272.05
1278.42	1343.06
1284.53	1417.03
1290.65	1515.21
1296.76	1634.08
1302.88	1734.89
1308.99	1839.51
1315.11	2001.07
1321.22	2082.18
1327.34	2210.02
1333.45	2235.8
1339.57	2260.8
1345.68	2227.05
1351.8	2120.24
1357.91	2026.84
1364.03	1961.32
1370.14	1870.91
1376.26	1750.14
1382.37	1648.44
1388.49	1548.93
1394.6	1484.84
1400.72	1388.52
1406.83	1338.48
1412.95	1274.72
1419.06	1263.47
1425.18	1230.58
1431.29	1195.95
1437.41	1194.31
1443.53	1145.73
1449.64	1150.9
1455.76	1144.24
1461.87	1131.38
1467.99	1108.2
1474.1	1119.23
1480.22	1159.59
1486.33	1120.48
1492.45	1138.38
1498.56	1138.83
1504.68	1160.61
1510.79	1164.8
1516.91	1187.88
1523.02	1202.01
1529.14	1257.75
1535.25	1323.62
1541.37	1382.95
1547.48	1460.45
1553.6	1556.33
1559.71	1653.45
1565.83	1795.7
1571.94	1914.89
1578.06	2055.69
1584.17	2097.87
1590.29	2158.94
1596.4	2139.9
1602.52	2008.05
1608.63	1854.89
1614.75	1637.35
1620.86	1435.67
1626.98	1232.77
1633.09	1057.25
1639.21	886.872
1645.32	776.225
1651.44	689.004
1657.55	617.163
1663.67	551.674
1669.78	498.793
1675.9	442.212
1682.01	415.113
1688.13	386.91
1694.24	361.834
1700.36	348.838
1706.47	332.901
1712.59	325.039
1718.71	308.02
1724.82	306.778
1730.94	300.842
1737.05	292.909
1743.17	288.807
1749.28	288.068
1755.4	287.489
1761.51	283.051
1767.63	268.441
1773.74	284.002
1779.86	282.702
1785.97	267.717
1792.09	262.97
1798.2	266.22
1804.32	269.128
1810.43	265.016
1816.55	266.451
1822.66	266.777
1828.78	264.561
1834.89	267.962
1841.01	269.391
1847.12	262.073
1853.24	258.082
1859.35	263.223
1865.47	254.161
1871.58	251.451
1877.7	249.845
1883.81	250.09
1889.93	256.477
1896.04	252.35
1902.16	253.845
1908.27	241.234
1914.39	251.972
1920.5	246.592
1926.62	252.528
1932.73	250.46
1938.85	247.277
1944.96	242.778
1951.08	253.516
1957.19	242.552
1963.31	247.326
1969.42	246.896
1975.54	240.625
1981.65	245.054
1987.77	248.981
1993.88	239.682
2000	247.214