File: Example Data/Raman/CNT - TIM/Raytheon/Microwave/Test 2 - From Anu/Batch 23 - noMW - top.txt
300	267.713
306.115	295.657
312.23	285.184
318.345	279.269
324.46	265.515
330.576	275.5
336.691	284.726
342.806	253.933
348.921	265.897
355.036	256.801
361.151	271.256
367.266	246.569
373.381	248.569
379.496	258.759
385.612	258.486
391.727	248.374
397.842	242.412
403.957	255.96
410.072	252.866
416.187	245.501
422.302	238.249
428.417	246.722
434.532	247.22
440.647	250.121
446.763	233.559
452.878	228.433
458.993	237.423
465.108	235.699
471.223	235.396
477.338	228.041
483.453	226.4
489.568	212.936
495.683	217.027
501.799	208.705
507.914	209.106
514.029	206.506
520.144	198.109
526.259	205.487
532.374	194.81
538.489	198.378
544.604	198.819
550.719	210.106
556.835	212.375
562.95	218.187
569.065	202.86
575.18	217.638
581.295	201.833
587.41	203.884
593.525	208.362
599.64	219.148
605.755	215.774
611.87	215.441
617.986	213.303
624.101	222.245
630.216	218.263
636.331	226.065
642.446	224.997
648.561	222.185
654.676	232.852
660.791	231.285
666.906	233.605
673.022	225.762
679.137	235.799
685.252	226.208
691.367	222.604
697.482	233.288
703.597	236.154
709.712	240.638
715.827	243.659
721.942	244.502
728.058	256.118
734.173	254.032
740.288	265.25
746.403	262.041
752.518	262.192
758.633	270.198
764.748	272.069
770.863	270.6
776.978	269.636
783.094	273.201
789.209	274.426
795.324	282.852
801.439	278.853
807.554	302.671
813.669	292.475
819.784	303.36
825.899	298.101
832.014	295.061
838.13	283.95
844.245	293.947
850.36	305.379
856.475	307.496
862.59	284.493
868.705	275.278
874.82	295.552
880.935	265
887.05	270.899
893.165	266.36
899.281	261.275
905.396	262
911.511	244.714
917.626	257.446
923.741	252.066
929.856	251.956
935.971	257.289
942.086	258.774
948.201	243.202
954.317	246.881
960.432	260.564
966.547	263.749
972.662	258.581
978.777	267.257
984.892	270.723
991.007	266.099
997.122	289.519
1003.24	284.464
1009.35	301.092
1015.47	301.059
1021.58	316.459
1027.7	385.057
1033.81	333.57
1039.93	326.681
1046.04	338.087
1052.16	351.741
1058.27	366.381
1064.39	365.838
1070.5	367.99
1076.62	378.423
1082.73	383.78
1088.85	380.806
1094.96	397.731
1101.08	413.116
1107.19	411.067
1113.31	414.741
1119.42	434.566
1125.54	433.782
1131.65	455.728
1137.77	478.575
1143.88	477.68
1150	477.39
1156.12	490.014
1162.23	495.952
1168.35	507.161
1174.46	509.279
1180.58	548.497
1186.69	507.656
1192.81	533.522
1198.92	560.361
1205.04	590.665
1211.15	593.576
1217.27	604.173
1223.38	622.198
1229.5	654.944
1235.61	675.549
1241.73	701.122
1247.84	727.27
1253.96	764.75
1260.07	819.512
1266.19	858.962
1272.3	896.79
1278.42	918.462
1284.53	1025.47
1290.65	1111.4
1296.76	1205.44
1302.88	1302.69
1308.99	1419.41
1315.11	1511.34
1321.22	1649.61
1327.34	1801.63
1333.45	1848.45
1339.57	1851.67
1345.68	1822.32
1351.8	1787.49
1357.91	1685.99
1364.03	1561.08
1370.14	1448.36
1376.26	1371.76
1382.37	1235.25
1388.49	1172.29
1394.6	1083.81
1400.72	1038.67
1406.83	993.526
1412.95	963.651
1419.06	923.187
1425.18	915.122
1431.29	901.34
1437.41	869.916
1443.53	858.46
1449.64	863.206
1455.76	839.945
1461.87	854.346
1467.99	845.376
1474.1	840.741
1480.22	857.639
1486.33	870.099
1492.45	852.411
1498.56	862.605
1504.68	856.613
1510.79	897.102
1516.91	911.896
1523.02	934.376
1529.14	964.005
1535.25	1047.07
1541.37	1117.58
1547.48	1215.99
1553.6	1324.54
1559.71	1424.23
1565.83	1568.75
1571.94	1634.23
1578.06	1717.73
1584.17	1753.4
1590.29	1727.78
1596.4	1706.62
1602.52	1612.6
1608.63	1501.53
1614.75	1359.19
1620.86	939.876
1626.98	1004.88
1633.09	839.35
1639.21	732.831
1645.32	618.131
1651.44	535.956
1657.55	453.904
1663.67	407.261
1669.78	362.059
1675.9	324.626
1682.01	306.312
1688.13	281.441
1694.24	266.643
1700.36	256.613
1706.47	241.5
1712.59	234.455
1718.71	230.339
1724.82	222.938
1730.94	212.472
1737.05	212.53
1743.17	204.145
1749.28	210.871
1755.4	194.381
1761.51	202.013
1767.63	183.256
1773.74	200.277
1779.86	193.943
1785.97	193.085
1792.09	196.259
1798.2	192.032
1804.32	188.547
1810.43	195.608
1816.55	191.074
1822.66	190.451
1828.78	178.597
1834.89	181.225
1841.01	188.827
1847.12	186.179
1853.24	185.822
1859.35	176.736
1865.47	185.642
1871.58	177.411
1877.7	184.576
1883.81	184.053
1889.93	183.975
1896.04	176.422
1902.16	186.811
1908.27	177.549
1914.39	182.869
1920.5	172.246
1926.62	178.435
1932.73	167.045
1938.85	172.101
1944.96	173.969
1951.08	175.18
1957.19	182.962
1963.31	175.041
1969.42	179.576
1975.54	182.222
1981.65	175.938
1987.77	179.867
1993.88	182.474
2000	170.415