File: Example Data/Raman/CNT - TIM/Raytheon/Microwave/Test 2 - From Anu/LPCVD-Tc-700 - 5min - C_Micro-5min - bottom.txt
300	356.455
306.115	361.199
312.23	345.718
318.345	349.666
324.46	347.644
330.576	348.897
336.691	347.096
342.806	352.302
348.921	315.184
355.036	333.276
361.151	329.605
367.266	310.861
373.381	329.141
379.496	321.692
385.612	326.644
391.727	316.208
397.842	326.138
403.957	330.516
410.072	321.088
416.187	306.253
422.302	322.259
428.417	318.872
434.532	314.208
440.647	313.133
446.763	308.986
452.878	301.885
458.993	283.48
465.108	304.794
471.223	292.598
477.338	304.092
483.453	294.489
489.568	280.503
495.683	276.187
501.799	275.948
507.914	268.212
514.029	257.646
520.144	258.353
526.259	266.837
532.374	270.514
538.489	272.552
544.604	273.122
550.719	277.102
556.835	285.153
562.95	268.5
569.065	264.344
575.18	280.617
581.295	280.324
587.41	272.118
593.525	276.328
599.64	282.093
605.755	275.943
611.87	283.353
617.986	290.099
624.101	284.495
630.216	291.881
636.331	293.903
642.446	286.95
648.561	296.917
654.676	292.486
660.791	302.598
666.906	298.779
673.022	311.5
679.137	299.536
685.252	299.45
691.367	314.501
697.482	311.745
703.597	318.999
709.712	318.234
715.827	310.637
721.942	330.076
728.058	313.814
734.173	326.307
740.288	336.06
746.403	336.169
752.518	332.577
758.633	338.66
764.748	353.961
770.863	349.117
776.978	345.142
783.094	346.859
789.209	346.226
795.324	355.607
801.439	357.991
807.554	362.446
813.669	374.569
819.784	384.647
825.899	369.474
832.014	373.419
838.13	381.428
844.245	393.811
850.36	383.856
856.475	396.812
862.59	391.122
868.705	365.138
874.82	352.621
880.935	362.874
887.05	353.757
893.165	345.724
899.281	336.966
905.396	336.866
911.511	331.893
917.626	343.719
923.741	335.43
929.856	345.519
935.971	337.943
942.086	340.947
948.201	341.202
954.317	345.65
960.432	337.228
966.547	331.889
972.662	347.286
978.777	357.812
984.892	357.966
991.007	365.216
997.122	379.091
1003.24	394.822
1009.35	412.088
1015.47	406.957
1021.58	419.023
1027.7	428.028
1033.81	457.873
1039.93	464.382
1046.04	464.892
1052.16	466.3
1058.27	473.392
1064.39	488.449
1070.5	498.491
1076.62	515.846
1082.73	531.071
1088.85	536.495
1094.96	556.398
1101.08	578.626
1107.19	589.904
1113.31	603.487
1119.42	606.037
1125.54	620.981
1131.65	632.392
1137.77	650.129
1143.88	674.832
1150	708.53
1156.12	720.714
1162.23	718.174
1168.35	732.914
1174.46	774.973
1180.58	758.422
1186.69	761.026
1192.81	800.013
1198.92	822.366
1205.04	829.537
1211.15	852.382
1217.27	875.394
1223.38	899.307
1229.5	924.216
1235.61	982.904
1241.73	996.611
1247.84	1049.86
1253.96	1092.11
1260.07	1109.41
1266.19	1205.55
1272.3	1283.26
1278.42	1345.97
1284.53	1427.13
1290.65	1535.23
1296.76	1641.47
1302.88	1789.14
1308.99	1961.6
1315.11	2100.42
1321.22	2266.53
1327.34	2475.84
1333.45	2611.41
1339.57	2724.17
1345.68	2694.28
1351.8	2661.2
1357.91	2539.34
1364.03	2397.31
1370.14	2214.57
1376.26	2058.24
1382.37	1888.48
1388.49	1802.38
1394.6	1632.82
1400.72	1578.06
1406.83	1502.54
1412.95	1429.14
1419.06	1375.33
1425.18	1343.77
1431.29	1318.48
1437.41	1287.72
1443.53	1254.9
1449.64	1248.32
1455.76	1229.1
1461.87	1246.58
1467.99	1226.14
1474.1	1204.29
1480.22	1229.63
1486.33	1227.76
1492.45	1254.82
1498.56	1258.89
1504.68	1230.05
1510.79	1263.17
1516.91	1273.03
1523.02	1308.32
1529.14	1361.01
1535.25	1383.93
1541.37	1459.75
1547.48	1569.13
1553.6	1730.42
1559.71	1831.37
1565.83	2013.54
1571.94	2175.92
1578.06	2311.2
1584.17	2464.04
1590.29	2511.51
1596.4	2511.16
1602.52	2450.15
1608.63	2344.86
1614.75	2173.69
1620.86	1940.65
1626.98	1685.13
1633.09	1424.65
1639.21	1211.62
1645.32	1037.29
1651.44	893.896
1657.55	803.847
1663.67	680.434
1669.78	584.909
1675.9	536.412
1682.01	487.063
1688.13	455.907
1694.24	424.479
1700.36	408.593
1706.47	379.578
1712.59	379.379
1718.71	365.264
1724.82	348.196
1730.94	343.961
1737.05	331.496
1743.17	328.992
1749.28	332.484
1755.4	307.671
1761.51	318.473
1767.63	320.861
1773.74	312.142
1779.86	307.813
1785.97	307.85
1792.09	320.508
1798.2	314.496
1804.32	308.435
1810.43	307.699
1816.55	310.376
1822.66	319.253
1828.78	322.148
1834.89	306.729
1841.01	315.206
1847.12	313.443
1853.24	309.232
1859.35	310.192
1865.47	301.041
1871.58	311.875
1877.7	318.44
1883.81	308.635
1889.93	295.02
1896.04	308.341
1902.16	306.981
1908.27	308.96
1914.39	301.906
1920.5	301.364
1926.62	294.119
1932.73	309.337
1938.85	313.032
1944.96	305.624
1951.08	307.93
1957.19	308.585
1963.31	310.234
1969.42	303.517
1975.54	305.826
1981.65	307.651
1987.77	305.717
1993.88	307.056
2000	315.399