File: Example Data/Raman/CNT - TIM/Raytheon/Microwave/Test 2 - From Anu/LPCVD-Tc-700 - 5min - C_noMW - bottom.txt
300	372.874
306.115	389.936
312.23	387.782
318.345	394.91
324.46	382.96
330.576	391.434
336.691	386.38
342.806	378.082
348.921	379.125
355.036	382.07
361.151	379.762
367.266	369.527
373.381	368.728
379.496	351.008
385.612	370.283
391.727	361.729
397.842	356.045
403.957	359.516
410.072	346.141
416.187	374.497
422.302	349.171
428.417	356.329
434.532	353.059
440.647	345.937
446.763	351.276
452.878	337.741
458.993	317.633
465.108	345.951
471.223	324.376
477.338	316.805
483.453	318.459
489.568	291.593
495.683	296.367
501.799	305.136
507.914	295.443
514.029	290.912
520.144	303.275
526.259	294.856
532.374	296.894
538.489	300.873
544.604	301.75
550.719	1759.09
556.835	305.881
562.95	306.437
569.065	301.881
575.18	318.706
581.295	310.102
587.41	304.826
593.525	316.071
599.64	315.061
605.755	307.756
611.87	318.671
617.986	315.657
624.101	308.498
630.216	326.811
636.331	323.812
642.446	323.016
648.561	326.462
654.676	335.453
660.791	334.575
666.906	326.157
673.022	325.588
679.137	327.167
685.252	328.571
691.367	339.783
697.482	329.206
703.597	343.938
709.712	351.691
715.827	336.337
721.942	343.03
728.058	368.889
734.173	361.934
740.288	365.574
746.403	351.665
752.518	368.263
758.633	376.511
764.748	368.612
770.863	373.44
776.978	382.492
783.094	386.769
789.209	383.206
795.324	398.334
801.439	383.159
807.554	404.879
813.669	412.836
819.784	409.437
825.899	422.046
832.014	406.056
838.13	415.303
844.245	425.469
850.36	404.555
856.475	425.463
862.59	404.88
868.705	388
874.82	394.345
880.935	373.751
887.05	383.888
893.165	385.254
899.281	382.141
905.396	367.725
911.511	365.279
917.626	372.85
923.741	365.066
929.856	362.362
935.971	391.02
942.086	368.472
948.201	381.677
954.317	373.019
960.432	366.034
966.547	377.5
972.662	387.496
978.777	385.613
984.892	397.129
991.007	401.401
997.122	418.649
1003.24	435.396
1009.35	446.976
1015.47	454.276
1021.58	466.568
1027.7	475.725
1033.81	485.896
1039.93	505.289
1046.04	512.658
1052.16	520.108
1058.27	536.919
1064.39	522.741
1070.5	553.436
1076.62	561.299
1082.73	576.992
1088.85	584.116
1094.96	605.303
1101.08	609.764
1107.19	637.583
1113.31	645.778
1119.42	662.84
1125.54	677.166
1131.65	685.135
1137.77	737.739
1143.88	751.386
1150	771.521
1156.12	813.21
1162.23	816.565
1168.35	830.854
1174.46	864.034
1180.58	851.143
1186.69	878.18
1192.81	885.849
1198.92	896.379
1205.04	917.38
1211.15	953.268
1217.27	982.894
1223.38	1021.88
1229.5	1045.17
1235.61	1100.59
1241.73	1132.71
1247.84	1183.67
1253.96	1241.4
1260.07	1291.81
1266.19	1358.9
1272.3	1430.88
1278.42	1501.04
1284.53	1623.46
1290.65	1710.18
1296.76	1803.79
1302.88	1875.06
1308.99	2036.77
1315.11	2130.01
1321.22	2252.79
1327.34	2253.48
1333.45	2325.68
1339.57	2380.81
1345.68	2350.55
1351.8	2288.24
1357.91	2218.89
1364.03	2112.74
1370.14	2041.59
1376.26	1944.6
1382.37	1839.7
1388.49	1763.22
1394.6	1689.2
1400.72	1634.16
1406.83	1533.15
1412.95	1479.05
1419.06	1424.5
1425.18	1399.42
1431.29	1378.44
1437.41	1368.33
1443.53	1349.26
1449.64	1326.86
1455.76	1331.89
1461.87	1309.17
1467.99	1284.65
1474.1	1337.28
1480.22	1313.56
1486.33	1299.15
1492.45	1305
1498.56	1317.61
1504.68	1334.43
1510.79	1338.71
1516.91	1342.72
1523.02	1394.98
1529.14	1397.04
1535.25	1466.07
1541.37	1531.54
1547.48	1594.23
1553.6	1690.62
1559.71	1803.59
1565.83	1948.32
1571.94	2069.28
1578.06	2183.51
1584.17	2275.76
1590.29	2312.6
1596.4	2298.67
1602.52	2233.47
1608.63	2052.91
1614.75	1833.53
1620.86	1601.49
1626.98	1380.2
1633.09	1182.83
1639.21	1041.96
1645.32	909.954
1651.44	805.939
1657.55	707.544
1663.67	625.262
1669.78	545.774
1675.9	497.215
1682.01	458.954
1688.13	428.359
1694.24	398.613
1700.36	384.568
1706.47	367.49
1712.59	352.539
1718.71	342.097
1724.82	337.522
1730.94	322.251
1737.05	325.558
1743.17	314.684
1749.28	306.739
1755.4	312.453
1761.51	293.374
1767.63	301.349
1773.74	301.853
1779.86	287.148
1785.97	300.689
1792.09	285.379
1798.2	286.63
1804.32	274.708
1810.43	274.265
1816.55	282.269
1822.66	279.568
1828.78	268.75
1834.89	278.913
1841.01	277.813
1847.12	262.887
1853.24	270.089
1859.35	283.197
1865.47	273.98
1871.58	263.348
1877.7	278.77
1883.81	264.979
1889.93	273.809
1896.04	258.189
1902.16	265.55
1908.27	266.466
1914.39	271.691
1920.5	260.473
1926.62	268.505
1932.73	257.688
1938.85	262.833
1944.96	265.504
1951.08	265.982
1957.19	261.864
1963.31	261.485
1969.42	269.474
1975.54	271.3
1981.65	266.047
1987.77	259.384
1993.88	280.29
2000	270.403