File: Example Data/Raman/CNT - TIM/Raytheon/Microwave/Test 2 - From Anu/LPCVD-Tc-700 - 5min - C_Micro-5min - _2.txt
200	324.591
207.442	337.671
214.885	336.362
222.327	347.211
229.77	335.267
237.212	330.747
244.655	336.52
252.097	347.518
259.54	333.896
266.982	346.67
274.425	338.03
281.867	322.524
289.31	319.282
296.752	315.689
304.195	320.285
311.637	307.998
319.08	317.774
326.522	307.399
333.965	284.335
341.407	306.495
348.85	290.015
356.292	297.209
363.735	287.109
371.177	287.861
378.62	283.029
386.062	284.61
393.505	280.815
400.947	270.502
408.39	269.823
415.832	282.248
423.275	273.193
430.717	265.297
438.16	259.045
445.602	253.828
453.045	258.69
460.487	258.681
467.93	249.726
475.372	244.134
482.815	231.377
490.257	243.601
497.7	242.041
505.142	234.386
512.585	233.307
520.027	230.568
527.47	220.647
534.912	227.05
542.355	221.945
549.797	224.246
557.24	223.816
564.682	221.872
572.125	233.032
579.567	233.574
587.009	237.877
594.452	244.166
601.894	250.683
609.337	236.423
616.779	245.226
624.222	240.768
631.664	240.677
639.107	255.031
646.549	260.193
653.992	247.389
661.434	253.137
668.877	260.691
676.319	260.191
683.762	248.308
691.204	244.941
698.647	262.363
706.089	257.958
713.532	260.069
720.974	266.16
728.417	269.366
735.859	269.631
743.302	285.881
750.744	280.913
758.187	291.59
765.629	285.232
773.072	301.975
780.514	292.339
787.957	309.09
795.399	308.806
802.842	318.668
810.284	316.158
817.727	313.827
825.169	333.47
832.612	318.558
840.054	327.215
847.497	344.465
854.939	324.486
862.382	305.908
869.824	300.245
877.267	294.614
884.709	291.499
892.152	282.212
899.594	283.661
907.037	286.113
914.479	271.55
921.922	271.477
929.364	274.081
936.807	276.368
944.249	288.588
951.691	282.71
959.134	285
966.576	279.847
974.019	300.263
981.461	289.673
988.904	303.573
996.346	307.508
1003.79	323.724
1011.23	330.56
1018.67	341.243
1026.12	352.902
1033.56	366.333
1041	368.739
1048.44	374.692
1055.89	383.456
1063.33	386.094
1070.77	404.344
1078.21	392.345
1085.66	421.366
1093.1	435.842
1100.54	448.205
1107.98	454.287
1115.43	471.461
1122.87	482.83
1130.31	504.854
1137.75	505.938
1145.2	528.812
1152.64	544.307
1160.08	551.462
1167.52	574.358
1174.97	606.18
1182.41	587.506
1189.85	597.735
1197.29	610.375
1204.74	651.288
1212.18	642.302
1219.62	682.313
1227.06	721.404
1234.51	738.089
1241.95	794.945
1249.39	810.881
1256.83	854.692
1264.28	936.12
1271.72	980.943
1279.16	1070.15
1286.6	1136.4
1294.05	1216.97
1301.49	1333.39
1308.93	1484.26
1316.37	1656.77
1323.82	1705.8
1331.26	1835.4
1338.7	1870.72
1346.14	1845.5
1353.59	1743.07
1361.03	1634.4
1368.47	1507.85
1375.91	1408.07
1383.36	1302.09
1390.8	1226.83
1398.24	1118.85
1405.68	1100.17
1413.13	1018.08
1420.57	991.268
1428.01	947.127
1435.45	926.216
1442.9	917.497
1450.34	897.467
1457.78	882.784
1465.22	885.38
1472.67	896.622
1480.11	891.005
1487.55	913.656
1494.99	916.88
1502.44	922.983
1509.88	904.091
1517.32	942.381
1524.76	965.682
1532.21	1019.85
1539.65	1083.69
1547.09	1165.33
1554.53	1304.29
1561.98	1382.07
1569.42	1518.98
1576.86	1636.9
1584.3	1679.71
1591.75	1733.64
1599.19	1710.92
1606.63	1574.79
1614.07	1364.17
1621.52	1169.3
1628.96	971.444
1636.4	834.154
1643.84	666.556
1651.29	577.071
1658.73	482.843
1666.17	417.15
1673.61	368.491
1681.06	331.57
1688.5	302.144
1695.94	287.279
1703.38	268.352
1710.83	248.039
1718.27	245.279
1725.71	238.507
1733.15	228.384
1740.6	223.399
1748.04	220.425
1755.48	216.257
1762.92	209.099
1770.37	211.844
1777.81	205.429
1785.25	209.213
1792.69	206.95
1800.14	199.162
1807.58	195.23
1815.02	201.537
1822.46	205.995
1829.91	199.654
1837.35	191.199
1844.79	202.902
1852.23	189.077
1859.68	188.71
1867.12	203.477
1874.56	191.989
1882	189.468
1889.45	196.499
1896.89	190.177
1904.33	192.545
1911.77	189.937
1919.22	188.545
1926.66	182.033
1934.1	189.354
1941.54	182.454
1948.99	187.791
1956.43	192.761
1963.87	187.511
1971.31	190.634
1978.76	189.944
1986.2	183.468
1993.64	190.307
2001.08	193.386
2008.53	178.345
2015.97	187.824
2023.41	182.391
2030.85	189.344
2038.3	178.5
2045.74	196.532
2053.18	180.419
2060.62	195.008
2068.06	187.726
2075.51	190.469
2082.95	184.111
2090.39	187.27
2097.83	183.285
2105.28	184.656
2112.72	191.007
2120.16	188.21
2127.6	184.784
2135.05	186.392
2142.49	194.154
2149.93	186.65
2157.37	186.801
2164.82	188.129
2172.26	181.121
2179.7	187.66
2187.14	190.73
2194.59	187.613
2202.03	192.099
2209.47	191.065
2216.91	187.869
2224.36	195.35
2231.8	192.948
2239.24	370.327
2246.68	194.954
2254.13	196.871
2261.57	194.096
2269.01	194.434
2276.45	197.793
2283.9	197.28
2291.34	206.231
2298.78	204.336
2306.22	202.298
2313.67	205.956
2321.11	216.627
2328.55	301.36
2335.99	207.746
2343.44	213.809
2350.88	208.706
2358.32	215.584
2365.76	215.998
2373.21	220.961
2380.65	218.033
2388.09	223.023
2395.53	227.044
2400	233.505