File: Example Data/Raman/CNT - TIM/Raytheon/Microwave/Test 2 - From Anu/LPCVD-Tc-650 - 5min - C_Micro-5min - top.txt
300	237.228
306.115	236.122
312.23	252.794
318.345	245.666
324.46	234.509
330.576	239.352
336.691	240.169
342.806	233.046
348.921	225.353
355.036	228.377
361.151	226.883
367.266	226.497
373.381	228.843
379.496	220.717
385.612	229.731
391.727	212.335
397.842	224.644
403.957	224.213
410.072	214.164
416.187	223.248
422.302	218.739
428.417	211.745
434.532	221.002
440.647	201.038
446.763	214.73
452.878	208.554
458.993	202.437
465.108	192.451
471.223	198.558
477.338	201.43
483.453	197.77
489.568	185.037
495.683	196.369
501.799	191.238
507.914	178.372
514.029	178.578
520.144	172.397
526.259	185.818
532.374	177.502
538.489	175.719
544.604	174.282
550.719	178.755
556.835	181.535
562.95	174
569.065	188.434
575.18	183.07
581.295	190.139
587.41	192.532
593.525	193.546
599.64	183.143
605.755	188.798
611.87	189.167
617.986	197.02
624.101	187.124
630.216	202.956
636.331	192.709
642.446	197.893
648.561	202.834
654.676	208.151
660.791	199.467
666.906	216.09
673.022	209.721
679.137	210.393
685.252	208.787
691.367	215.032
697.482	211.41
703.597	209.813
709.712	212.618
715.827	227.979
721.942	219.074
728.058	225.586
734.173	229.041
740.288	228.929
746.403	238.61
752.518	246.468
758.633	239.104
764.748	243.497
770.863	237.931
776.978	235.93
783.094	249.012
789.209	254.617
795.324	249.602
801.439	263.018
807.554	248.894
813.669	263.065
819.784	264.633
825.899	268.048
832.014	268.899
838.13	264.169
844.245	268.268
850.36	276.518
856.475	281.631
862.59	263.882
868.705	250.138
874.82	248.806
880.935	239.496
887.05	250.092
893.165	233.271
899.281	252.965
905.396	230.432
911.511	221.773
917.626	221.9
923.741	224.701
929.856	219.731
935.971	219.153
942.086	228.551
948.201	225.298
954.317	214.488
960.432	211.348
966.547	216.306
972.662	229.394
978.777	220.957
984.892	221.251
991.007	234.335
997.122	245.26
1003.24	252.227
1009.35	240.357
1015.47	267.797
1021.58	261.921
1027.7	275.938
1033.81	294.662
1039.93	291.234
1046.04	289.33
1052.16	298.62
1058.27	292.399
1064.39	307.476
1070.5	320.194
1076.62	321.946
1082.73	335.192
1088.85	344.692
1094.96	341.091
1101.08	344.203
1107.19	371.852
1113.31	380.579
1119.42	373.151
1125.54	367.651
1131.65	383.167
1137.77	421.286
1143.88	407.701
1150	409.757
1156.12	429.75
1162.23	434.947
1168.35	418.828
1174.46	444.976
1180.58	449.839
1186.69	455.091
1192.81	461.116
1198.92	493.143
1205.04	507.63
1211.15	525.942
1217.27	532.408
1223.38	548.183
1229.5	580.068
1235.61	575.833
1241.73	623.081
1247.84	658.261
1253.96	694.628
1260.07	720.453
1266.19	763.801
1272.3	828.414
1278.42	879.783
1284.53	939.366
1290.65	1019.42
1296.76	1107.36
1302.88	1242.25
1308.99	1389.53
1315.11	1548.48
1321.22	1790.62
1327.34	1965.04
1333.45	2140
1339.57	2267.93
1345.68	2255.53
1351.8	2142.5
1357.91	1986.92
1364.03	1791.21
1370.14	1613.4
1376.26	1469.71
1382.37	1351.68
1388.49	1207.15
1394.6	1107.48
1400.72	1045.3
1406.83	1005.72
1412.95	935.034
1419.06	909.588
1425.18	856.307
1431.29	839.402
1437.41	820.197
1443.53	793.931
1449.64	796.134
1455.76	775.788
1461.87	798.253
1467.99	787.454
1474.1	788.489
1480.22	772.972
1486.33	783.862
1492.45	787.034
1498.56	775.771
1504.68	790.286
1510.79	814.29
1516.91	803.445
1523.02	812.711
1529.14	851.648
1535.25	894.071
1541.37	952.449
1547.48	1034.55
1553.6	1146.04
1559.71	1233.23
1565.83	1374.48
1571.94	1536.19
1578.06	1656.03
1584.17	1754.46
1590.29	1812.86
1596.4	1780.73
1602.52	1775.2
1608.63	1676.38
1614.75	1593.61
1620.86	1415.99
1626.98	1186.92
1633.09	990.262
1639.21	816.238
1645.32	669.353
1651.44	572.958
1657.55	479.431
1663.67	408.965
1669.78	354.491
1675.9	307.136
1682.01	273.094
1688.13	253.215
1694.24	239.368
1700.36	228.97
1706.47	208.64
1712.59	208.196
1718.71	205.252
1724.82	194.748
1730.94	191.862
1737.05	186.575
1743.17	179.556
1749.28	178.565
1755.4	179.694
1761.51	174.753
1767.63	174.449
1773.74	183.274
1779.86	178.047
1785.97	171.43
1792.09	175.307
1798.2	176.047
1804.32	169.206
1810.43	169.537
1816.55	167.23
1822.66	163.347
1828.78	175.575
1834.89	164.871
1841.01	161.236
1847.12	168.385
1853.24	165.729
1859.35	162.756
1865.47	161.715
1871.58	153.425
1877.7	164.941
1883.81	151.837
1889.93	160.711
1896.04	162.77
1902.16	154.663
1908.27	164.137
1914.39	159.749
1920.5	151.95
1926.62	157.997
1932.73	153.624
1938.85	161.255
1944.96	158.748
1951.08	162.587
1957.19	152.125
1963.31	156.239
1969.42	159.44
1975.54	152.977
1981.65	161.795
1987.77	163.557
1993.88	166.392
2000	160.57