File: Example Data/Raman/CNT - TIM/Raytheon/Microwave/Test 2 - From Anu/LPCVD-Tc-700 - 5min - C_noMW - top.txt
300	268.132
306.115	273.236
312.23	274.711
318.345	274.429
324.46	279.197
330.576	280.089
336.691	273.02
342.806	271.119
348.921	265.412
355.036	251.942
361.151	249.97
367.266	251.546
373.381	252.907
379.496	248.242
385.612	252.251
391.727	249.466
397.842	254.012
403.957	243.343
410.072	239.968
416.187	250.5
422.302	239.121
428.417	238.839
434.532	247.973
440.647	238.65
446.763	241.56
452.878	241.661
458.993	227.007
465.108	228.03
471.223	230.031
477.338	215.101
483.453	223.8
489.568	212.427
495.683	214.464
501.799	211.27
507.914	203.895
514.029	210.49
520.144	209.845
526.259	210.456
532.374	200.957
538.489	211.797
544.604	219.201
550.719	208.006
556.835	218.611
562.95	210.751
569.065	225.903
575.18	219.08
581.295	224.991
587.41	217.465
593.525	221.046
599.64	230.827
605.755	219.026
611.87	222.19
617.986	223.949
624.101	231.094
630.216	232.906
636.331	230.037
642.446	221.199
648.561	236.271
654.676	237.089
660.791	230.776
666.906	232.749
673.022	239.574
679.137	232.96
685.252	231.824
691.367	248.894
697.482	242.668
703.597	241.433
709.712	241.707
715.827	245.5
721.942	247.879
728.058	254.328
734.173	252.967
740.288	257.988
746.403	270.485
752.518	267.571
758.633	269.523
764.748	273.641
770.863	275.761
776.978	276.568
783.094	274.999
789.209	282.869
795.324	292.884
801.439	298.967
807.554	298.263
813.669	290.279
819.784	303.658
825.899	296.136
832.014	302.939
838.13	308.886
844.245	314.414
850.36	301.303
856.475	308.437
862.59	283.374
868.705	293.087
874.82	296.966
880.935	280.123
887.05	270.81
893.165	267.407
899.281	255.533
905.396	255.474
911.511	260.243
917.626	252.612
923.741	261.03
929.856	249.082
935.971	259.192
942.086	256.506
948.201	254.427
954.317	252.007
960.432	263.348
966.547	261.75
972.662	262.15
978.777	264.616
984.892	273.37
991.007	275.281
997.122	286.219
1003.24	292.706
1009.35	310.31
1015.47	305.978
1021.58	307.546
1027.7	317.331
1033.81	325.197
1039.93	341.927
1046.04	354.083
1052.16	365.457
1058.27	369.94
1064.39	366.429
1070.5	372.011
1076.62	386.747
1082.73	386.684
1088.85	402.504
1094.96	411.237
1101.08	417.223
1107.19	444.777
1113.31	446.705
1119.42	457.884
1125.54	480.265
1131.65	490.029
1137.77	514.591
1143.88	536.554
1150	548.524
1156.12	561.055
1162.23	578.119
1168.35	584.619
1174.46	595.145
1180.58	601.006
1186.69	616.764
1192.81	638.062
1198.92	648.125
1205.04	650.761
1211.15	673.839
1217.27	708.825
1223.38	733.573
1229.5	744.435
1235.61	770.491
1241.73	804.053
1247.84	819.448
1253.96	881.95
1260.07	925.79
1266.19	958.414
1272.3	1001.73
1278.42	1076.86
1284.53	1133.43
1290.65	1192.51
1296.76	1273.88
1302.88	1356.12
1308.99	1460.79
1315.11	1497.97
1321.22	1582
1327.34	1690.48
1333.45	1696.06
1339.57	1735.47
1345.68	1734.31
1351.8	1700.06
1357.91	1651.91
1364.03	1623.79
1370.14	1519.94
1376.26	1435.34
1382.37	1368.87
1388.49	1281.94
1394.6	1212.3
1400.72	1158.01
1406.83	1116.44
1412.95	1074.56
1419.06	1044.34
1425.18	1007.2
1431.29	992.659
1437.41	990.21
1443.53	953.987
1449.64	930.144
1455.76	949.783
1461.87	923.574
1467.99	939.545
1474.1	931.74
1480.22	921.927
1486.33	908.446
1492.45	926.223
1498.56	913.994
1504.68	934.033
1510.79	919.235
1516.91	940.038
1523.02	953.458
1529.14	958.964
1535.25	1006.55
1541.37	1038.19
1547.48	1090.96
1553.6	1181.34
1559.71	1237.89
1565.83	1351.61
1571.94	1440.93
1578.06	1525.97
1584.17	1645.71
1590.29	1698.65
1596.4	1720.82
1602.52	1694.04
1608.63	1573.55
1614.75	1428.64
1620.86	1221.61
1626.98	1052.65
1633.09	902.353
1639.21	776.081
1645.32	675.894
1651.44	579.71
1657.55	517.747
1663.67	456.468
1669.78	394.178
1675.9	346.327
1682.01	307.131
1688.13	280.027
1694.24	266.735
1700.36	252.67
1706.47	242.282
1712.59	223.678
1718.71	221.608
1724.82	211.184
1730.94	192.762
1737.05	188.029
1743.17	191.518
1749.28	189.661
1755.4	186.587
1761.51	187.381
1767.63	186.244
1773.74	183.289
1779.86	177.672
1785.97	169.496
1792.09	174.981
1798.2	180.106
1804.32	164.206
1810.43	173.53
1816.55	172.936
1822.66	175.165
1828.78	171.362
1834.89	172.724
1841.01	161.845
1847.12	172.287
1853.24	175.293
1859.35	168.48
1865.47	166.561
1871.58	166.845
1877.7	176.571
1883.81	165.518
1889.93	169.061
1896.04	163.427
1902.16	163.619
1908.27	153.854
1914.39	165.052
1920.5	165.494
1926.62	154.758
1932.73	156.603
1938.85	154.262
1944.96	164.847
1951.08	164.164
1957.19	158.973
1963.31	167.629
1969.42	155.521
1975.54	163.857
1981.65	166.163
1987.77	160.55
1993.88	152.136
2000	164.446