File: Example Data/Raman/CNT - TIM/Raytheon/Microwave/Test 2 - From Anu/LPCVD-Tc-650 - 5min - C_Micro-5min - bottom.txt
300	417.256
306.115	421.613
312.23	410.697
318.345	418.982
324.46	417.412
330.576	404.94
336.691	404.499
342.806	410.302
348.921	398.309
355.036	388.085
361.151	399.514
367.266	400.986
373.381	389.804
379.496	392.009
385.612	388.209
391.727	385.906
397.842	388.536
403.957	365.077
410.072	380.58
416.187	376.998
422.302	382
428.417	380.62
434.532	371.696
440.647	368.937
446.763	365.325
452.878	363.736
458.993	354.034
465.108	345.768
471.223	357.045
477.338	338.17
483.453	332.86
489.568	328.374
495.683	329.047
501.799	323.79
507.914	309.751
514.029	323.68
520.144	316.282
526.259	316
532.374	310.379
538.489	323.736
544.604	310.963
550.719	314.987
556.835	319.167
562.95	309.249
569.065	325.087
575.18	318.315
581.295	321.139
587.41	325.775
593.525	322.966
599.64	333.274
605.755	312.65
611.87	314.196
617.986	318.554
624.101	330.762
630.216	331.592
636.331	332.228
642.446	325.073
648.561	344.223
654.676	333.551
660.791	338.096
666.906	345.744
673.022	357.133
679.137	337.312
685.252	358.616
691.367	352.563
697.482	366.448
703.597	337.539
709.712	356.416
715.827	349.228
721.942	364.547
728.058	375.156
734.173	366.561
740.288	364.67
746.403	391.388
752.518	375.391
758.633	392.36
764.748	395.823
770.863	397.426
776.978	384.61
783.094	385.579
789.209	382.994
795.324	406.996
801.439	397.129
807.554	427.779
813.669	422.646
819.784	413.34
825.899	409.858
832.014	441.189
838.13	439.93
844.245	428.806
850.36	436.55
856.475	428.296
862.59	422.369
868.705	407.805
874.82	411.89
880.935	408.502
887.05	398.226
893.165	392.068
899.281	386.824
905.396	383.066
911.511	385.042
917.626	393.296
923.741	383.257
929.856	397.312
935.971	399.885
942.086	394.148
948.201	387.525
954.317	397.003
960.432	399.587
966.547	407.805
972.662	401.498
978.777	405.645
984.892	410.262
991.007	435.374
997.122	424.491
1003.24	440.684
1009.35	449.291
1015.47	469.707
1021.58	498.587
1027.7	500.941
1033.81	511.053
1039.93	530.075
1046.04	545.198
1052.16	545.923
1058.27	555.495
1064.39	573.753
1070.5	590.682
1076.62	582.485
1082.73	599.268
1088.85	626.103
1094.96	628.949
1101.08	641.713
1107.19	646.634
1113.31	666.946
1119.42	689.503
1125.54	705.129
1131.65	730.398
1137.77	723.334
1143.88	749.625
1150	794.163
1156.12	797.955
1162.23	829.828
1168.35	852.901
1174.46	847.474
1180.58	891.122
1186.69	885.487
1192.81	913.616
1198.92	926.092
1205.04	963.349
1211.15	981.364
1217.27	1005.95
1223.38	1061.22
1229.5	1101.14
1235.61	1139.61
1241.73	1212.9
1247.84	1263.55
1253.96	1305.72
1260.07	1378.23
1266.19	1420.73
1272.3	1526.61
1278.42	1631.59
1284.53	1747.18
1290.65	1862.03
1296.76	2011.69
1302.88	2156.89
1308.99	2332.92
1315.11	2488.24
1321.22	2688.39
1327.34	2805.77
1333.45	2886.34
1339.57	2870.68
1345.68	2847.24
1351.8	2879.77
1357.91	2563.62
1364.03	2451.84
1370.14	2307.98
1376.26	2112.24
1382.37	1973.57
1388.49	1874.78
1394.6	1785.47
1400.72	1700.76
1406.83	1618.59
1412.95	1568.23
1419.06	1528.69
1425.18	1465.9
1431.29	1423.61
1437.41	1407.68
1443.53	1387.25
1449.64	1384.72
1455.76	1380.17
1461.87	1367.86
1467.99	1363.39
1474.1	1374.89
1480.22	1372.98
1486.33	1396.55
1492.45	1370.43
1498.56	1386.51
1504.68	1406.5
1510.79	1442.34
1516.91	1467.81
1523.02	1529.01
1529.14	1583.93
1535.25	1666.54
1541.37	1741.13
1547.48	1897.21
1553.6	2076.23
1559.71	2179.83
1565.83	2357.35
1571.94	2524.52
1578.06	2633.35
1584.17	2695.69
1590.29	2683.85
1596.4	2643.25
1602.52	2506.35
1608.63	2294.02
1614.75	2034.17
1620.86	1739.78
1626.98	1470.25
1633.09	1272.38
1639.21	1094.69
1645.32	938.013
1651.44	816.156
1657.55	708.393
1663.67	633.025
1669.78	562.015
1675.9	512.796
1682.01	468.794
1688.13	443.879
1694.24	415.36
1700.36	397.527
1706.47	379.036
1712.59	365.905
1718.71	361.866
1724.82	345.513
1730.94	335.013
1737.05	329.863
1743.17	324.678
1749.28	321.43
1755.4	316.518
1761.51	310.892
1767.63	314.921
1773.74	307.531
1779.86	308.678
1785.97	316.993
1792.09	301.788
1798.2	297.008
1804.32	293.953
1810.43	301.509
1816.55	290.424
1822.66	288.279
1828.78	302.872
1834.89	284.593
1841.01	286.234
1847.12	277.723
1853.24	286.062
1859.35	290.183
1865.47	285.64
1871.58	289.102
1877.7	282.275
1883.81	275.069
1889.93	270.739
1896.04	278.201
1902.16	271.116
1908.27	284.533
1914.39	285.169
1920.5	273.618
1926.62	279.792
1932.73	274.16
1938.85	275.25
1944.96	276.143
1951.08	288.362
1957.19	289.12
1963.31	277.338
1969.42	278.568
1975.54	271.428
1981.65	282.404
1987.77	264.952
1993.88	273.633
2000	281.111