File: Example Data/Raman/CNT - TIM/Raytheon/Al foil/2010/08-12-10/Al batch 14 - bottom.txt
300	54.6338
306.073	64.9785
312.147	66.538
318.22	61.7886
324.294	61.3354
330.367	45.354
336.44	51.5199
342.514	51.1547
348.587	54.7998
354.66	46.6942
360.734	43.8897
366.807	43.9857
372.881	35.6456
378.954	36.643
385.027	35.9402
391.101	41.4813
397.174	28.6142
403.248	40.5306
409.321	31.4984
415.394	32.8203
421.468	29.7222
427.541	29.4564
433.615	35.6822
439.688	26.0448
445.761	25.0709
451.835	19.5523
457.908	25.1569
463.981	16.3195
470.055	20.2922
476.128	19.0609
482.202	20.348
488.275	10.0908
494.348	10.683
500.422	4.60553
506.495	7.70943
512.569	5.68525
518.642	-4.7828
524.715	3.67526
530.789	-5.27993
536.862	-1.95505
542.935	5.26689
549.009	2.71868
555.082	0.0829636
561.156	2.89996
567.229	2.50029
573.302	0.589064
579.376	2.55501
585.449	-0.31099
591.523	3.69234
597.596	6.45606
603.669	1.04816
609.743	-3.84104
615.816	1.3577
621.89	5.46094
627.963	7.97747
634.036	7.30652
640.11	13.934
646.183	4.89031
652.256	7.48189
658.33	13.439
664.403	15.1028
670.477	13.4884
676.55	17.1423
682.623	11.8844
688.697	12.9701
694.77	9.14694
700.844	1.12492
706.917	7.48857
712.99	15.9019
719.064	16.5889
725.137	18.6036
731.21	26.1585
737.284	25.5961
743.357	20.6211
749.431	12.6029
755.504	26.295
761.577	30.929
767.651	37.4684
773.724	33.9826
779.798	34.4737
785.871	36.6296
791.944	37.2177
798.018	38.9531
804.091	44.4202
810.164	40.9008
816.238	41.7697
822.311	45.2559
828.385	51.1187
834.458	49.6319
840.531	41.4425
846.605	47.4878
852.678	39.0321
858.752	45.8954
864.825	40.8287
870.898	24.3382
876.972	24.4593
883.045	27.5133
889.119	20.1156
895.192	16.4172
901.265	8.78932
907.339	0.945248
913.412	-0.450412
919.485	5.05119
925.559	-2.82273
931.632	-1.45551
937.706	4.94829
943.779	1.31575
949.852	-8.15106
955.926	-11.028
961.999	-13.4153
968.073	-21.4954
974.146	-24.1537
980.219	-18.1876
986.293	-22.6208
992.366	-33.645
998.439	-33.6694
1004.51	-33.0235
1010.59	-28.9259
1016.66	-16.0085
1022.73	-21.4055
1028.81	-26.5495
1034.88	-25.2408
1040.95	-26.0234
1047.03	-17.9302
1053.1	-25.8173
1059.17	-22.0016
1065.25	-23.7554
1071.32	-25.6615
1077.39	-23.0473
1083.47	-25.0623
1089.54	-19.016
1095.61	-18.491
1101.69	-14.6868
1107.76	-25.9483
1113.83	-11.6551
1119.91	-15.824
1125.98	-10.5185
1132.05	-5.90867
1138.13	-0.681993
1144.2	3.94059
1150.27	19.4832
1156.35	23.3686
1162.42	19.5827
1168.49	19.5116
1174.57	21.9778
1180.64	17.3788
1186.71	25.4889
1192.79	26.6535
1198.86	21.4715
1204.93	36.9322
1211.01	39.1652
1217.08	40.188
1223.15	43.5089
1229.23	50.7644
1235.3	67.8831
1241.375	75.3017
1247.45	98.7458
1253.52	97.8386
1259.6	118.76
1265.67	144.296
1271.74	151.433
1277.82	191.253
1283.89	207.693
1289.96	240.756
1296.04	298.86
1302.11	354.89
1308.18	367.532
1314.26	430.185
1320.33	477.05
1326.4	503.913
1332.48	559.112
1338.55	606.87
1344.62	586.206
1350.7	575.521
1356.77	530.431
1362.84	514.804
1368.92	459.718
1374.99	420.256
1381.06	365.948
1387.14	311.763
1393.21	255.104
1399.28	243.515
1405.36	203.16
1411.43	161.177
1417.5	141.623
1423.58	105.603
1429.65	88.3712
1435.72	65.8284
1441.8	50.1581
1447.87	50.4044
1453.94	50.5686
1460.02	3.46422
1466.09	17.9402
1472.16	3.58209
1478.24	9.11146
1484.31	8.66868
1490.38	15.2395
1496.46	11.0113
1502.53	31.6507
1508.6	35.0447
1514.68	75.1933
1520.75	108.552
1526.82	119.936
1532.9	131.117
1538.97	145.497
1545.04	198.572
1551.12	247.163
1557.19	292.535
1563.26	335.306
1569.34	414.993
1575.41	461.898
1581.48	547.099
1587.56	615.024
1593.63	660.016
1599.7	688.506
1605.78	664.337
1611.85	619.016
1617.92	545.908
1624	475.361
1630.07	375.527
1636.15	301.878
1642.22	232.074
1648.29	183.257
1654.37	137.423
1660.44	105.014
1666.51	62.3407
1672.59	38.9296
1678.66	22.2796
1684.73	14.5091
1690.81	10.7343
1696.88	11.4832
1702.95	6.07096
1709.03	1.84994
1715.1	-0.495811
1721.17	-0.171922
1727.25	0.0892403
1733.32	-9.80105
1739.39	-5.87659
1745.47	-1.64833
1751.54	-3.08937
1757.61	-5.74252
1763.69	-4.47731
1769.76	-2.36502
1775.83	-1.30666
1781.91	5.18144
1787.98	-9.59083
1794.05	-3.99225
1800.13	2.24583
1806.2	7.76549
1812.27	3.7557
1818.35	0.368674
1824.42	-1.82602
1830.49	-3.10183
1836.57	0.0802366
1842.64	1.04545
1848.71	-9.94349
1854.79	2.02207
1860.86	-0.0735246
1866.93	3.54073
1873.01	-2.16238
1879.08	-10.5762
1885.15	0.746704
1891.23	2.39317
1897.3	-6.26136
1903.37	11.3686
1909.45	-3.22369
1915.52	-3.63309
1921.59	-2.19401
1927.67	-3.15288
1933.74	3.9657
1939.81	-4.2728
1945.89	-0.0789014
1951.96	-4.20224
1958.03	5.47673
1964.11	-7.28851
1970.18	-6.77086
1976.25	-4.10908
1982.33	-6.39233
1988.4	-4.09994
1994.47	1.41799
2000.55	-2.49504
2006.62	-5.20588
2012.7	-10.8192
2018.77	1.07968
2024.84	-3.92439
2030.92	-4.18179
2036.99	-3.50272
2043.06	1.44754
2049.14	-5.65873
2055.21	-0.62842
2061.28	1.36988
2067.36	-5.39485
2073.43	-1.18975
2079.5	-3.90695
2085.58	-4.85864
2091.65	-0.814181
2097.72	-5.63459
2100	4.75259