File: Example Data/Raman/CNT - TIM/Raytheon/Al foil/2010/08-12-10/Al batch 15 - top.txt
300	41.4069
306.073	42.09
312.147	37.6125
318.22	30.4132
324.294	31.5907
330.367	26.8995
336.44	27.7792
342.514	34.2446
348.587	26.349
354.66	21.286
360.734	34.7201
366.807	22.6567
372.881	16.5191
378.954	23.3901
385.027	26.7911
391.101	18.138
397.174	21.0316
403.248	14.1541
409.321	9.86333
415.394	13.6076
421.468	22.7211
427.541	12.3625
433.615	20.5488
439.688	17.8036
445.761	14.5735
451.835	14.3976
457.908	12.9527
463.981	9.67202
470.055	3.2625
476.128	6.68722
482.202	10.7144
488.275	2.51969
494.348	-0.386083
500.422	-7.39388
506.495	-4.31669
512.569	-1.73133
518.642	-8.82709
524.715	-5.61907
530.789	-0.83522
536.862	-8.34975
542.935	-7.61418
549.009	-7.20145
555.082	2.5354
561.156	-5.34833
567.229	0.0197949
573.302	-1.38101
579.376	2.04386
585.449	4.75717
591.523	5.60224
597.596	3.47553
603.669	-0.238616
609.743	8.53054
615.816	-9.18929
621.89	8.00011
627.963	2.34115
634.036	-2.79266
640.11	0.0741115
646.183	9.31547
652.256	7.98075
658.33	6.10389
664.403	13.1203
670.477	2.45004
676.55	8.5997
682.623	15.0077
688.697	8.71733
694.77	10.7665
700.844	13.6858
706.917	8.01098
712.99	9.06815
719.064	13.2207
725.137	17.7681
731.21	7.12417
737.284	20.2969
743.357	26.7586
749.431	18.5406
755.504	24.8234
761.577	19.0272
767.651	32.0959
773.724	35.0012
779.798	24.6042
785.871	37.6166
791.944	35.1663
798.018	33.4983
804.091	35.3784
810.164	39.2096
816.238	41.4853
822.311	39.041
828.385	42.3087
834.458	44.1295
840.531	39.7472
846.605	49.1701
852.678	41.8241
858.752	40.871
864.825	33.0192
870.898	32.9669
876.972	23.7715
883.045	20.1288
889.119	21.8745
895.192	11.7307
901.265	4.52975
907.339	6.41893
913.412	11.6783
919.485	-8.22736
925.559	4.29474
931.632	0.64487
937.706	-3.02609
943.779	2.68603
949.852	2.13355
955.926	-3.94355
961.999	-6.66159
968.073	-9.2233
974.146	-10.4204
980.219	-4.2269
986.293	-0.723219
992.366	-2.3697
998.439	-15.8911
1004.51	-10.4938
1010.59	-3.30605
1016.66	0.539061
1022.73	-2.32556
1028.81	1.36659
1034.88	17.0533
1040.95	4.75199
1047.03	13.9757
1053.1	0.543026
1059.17	17.6579
1065.25	3.74385
1071.32	10.2905
1077.39	12.3465
1083.47	14.5363
1089.54	12.551
1095.61	2.23623
1101.69	3.45272
1107.76	20.0046
1113.83	25.5171
1119.91	22.1949
1125.98	23.9735
1132.05	22.7535
1138.13	39.1732
1144.2	36.1912
1150.27	32.2426
1156.35	40.9367
1162.42	50.9856
1168.49	54.1526
1174.57	51.3782
1180.64	56.1517
1186.71	49.9899
1192.79	47.1413
1198.86	60.9596
1204.93	69.8435
1211.01	66.9706
1217.08	71.0465
1223.15	64.0287
1229.23	90.2391
1235.3	87.301
1241.375	117.684
1247.45	118.274
1253.52	146.556
1259.6	150.681
1265.67	194.705
1271.74	218.662
1277.82	256.299
1283.89	278.42
1289.96	305.709
1296.04	342.296
1302.11	403.22
1308.18	474.669
1314.26	526.261
1320.33	571.998
1326.4	673.182
1332.48	740.056
1338.55	757.083
1344.62	782.229
1350.7	762.158
1356.77	743.206
1362.84	678.241
1368.92	611.693
1374.99	543.285
1381.06	474.783
1387.14	410.781
1393.21	374.864
1399.28	298.378
1405.36	258.371
1411.43	220.299
1417.5	188.571
1423.58	150.377
1429.65	122.96
1435.72	94.1381
1441.8	82.4896
1447.87	61.2049
1453.94	55.5105
1460.02	38.8869
1466.09	23.0934
1472.16	15.4822
1478.24	0.875972
1484.31	-0.530409
1490.38	13.8196
1496.46	23.6727
1502.53	52.5168
1508.6	61.6304
1514.68	77.9115
1520.75	103.199
1526.82	133.919
1532.9	147.27
1538.97	198.946
1545.04	200.529
1551.12	254.381
1557.19	352.185
1563.26	389.525
1569.34	468.409
1575.41	548.102
1581.48	645.657
1587.56	735.996
1593.63	820.86
1599.7	830.57
1605.78	845.779
1611.85	782.681
1617.92	718.251
1624	617.695
1630.07	495.228
1636.15	395.247
1642.22	300.872
1648.29	235.472
1654.37	175.897
1660.44	126.268
1666.51	88.594
1672.59	59.5587
1678.66	32.5135
1684.73	20.0884
1690.81	12.3554
1696.88	12.7014
1702.95	13.8714
1709.03	7.64313
1715.1	7.46417
1721.17	8.03485
1727.25	6.23381
1733.32	10.1554
1739.39	1.77517
1745.47	4.95134
1751.54	-1.97812
1757.61	-1.15335
1763.69	-0.807615
1769.76	-8.67058
1775.83	-6.9357
1781.91	-15.6621
1787.98	-7.29514
1794.05	-8.39665
1800.13	-2.13297
1806.2	-12.55
1812.27	-13.1653
1818.35	-4.77369
1824.42	-6.05067
1830.49	-3.23145
1836.57	-11.5507
1842.64	-11.4146
1848.71	-2.88426
1854.79	-2.75722
1860.86	-4.35308
1866.93	-10.3427
1873.01	-1.79174
1879.08	0.613423
1885.15	-1.38832
1891.23	3.72295
1897.3	1.32038
1903.37	0.663688
1909.45	0.960601
1915.52	-2.59769
1921.59	-3.24193
1927.67	4.8183
1933.74	5.71796
1939.81	4.39263
1945.89	-4.38814
1951.96	7.12339
1958.03	2.2091
1964.11	4.25896
1970.18	-2.21792
1976.25	-5.55417
1982.33	-0.450065
1988.4	-1.44186
1994.47	-2.23097
2000.55	0.352977
2006.62	5.29184
2012.7	0.973084
2018.77	-4.93926
2024.84	-1.99296
2030.92	-1.25339
2036.99	-0.931857
2043.06	2.23203
2049.14	4.38167
2055.21	3.46388
2061.28	2.39574
2067.36	-4.61246
2073.43	0.750763
2079.5	-4.39985
2085.58	7.69481
2091.65	6.52996
2097.72	9.95711
2100	9.22466