File: Example Data/Raman/CNT - TIM/Raytheon/Al foil/2010/08-12-10/Al batch 15 - bottom_2.txt
300	57.0685
306.073	58.0896
312.147	58.0275
318.22	66.3791
324.294	54.1953
330.367	60.6772
336.44	54.3023
342.514	60.0798
348.587	54.4905
354.66	49.8809
360.734	47.1832
366.807	39.5187
372.881	42.2304
378.954	39.412
385.027	43.0793
391.101	36.63
397.174	37.3348
403.248	36.3393
409.321	30.2354
415.394	31.4088
421.468	32.7509
427.541	33.3727
433.615	30.415
439.688	26.5982
445.761	27.6244
451.835	28.9012
457.908	26.0554
463.981	16.9617
470.055	25.9057
476.128	9.93323
482.202	9.95871
488.275	14.0844
494.348	8.90739
500.422	7.80695
506.495	8.23417
512.569	0.277366
518.642	2.07857
524.715	4.74989
530.789	1.77876
536.862	-6.08872
542.935	-1.64079
549.009	5.91958
555.082	0.530978
561.156	-0.970897
567.229	-5.42624
573.302	0.504902
579.376	4.11833
585.449	6.59416
591.523	4.20994
597.596	8.45191
603.669	6.93489
609.743	3.67126
615.816	6.18604
621.89	2.98548
627.963	1.17812
634.036	1.53399
640.11	3.21895
646.183	11.1993
652.256	7.13614
658.33	2.83297
664.403	14.1034
670.477	15.2071
676.55	5.74071
682.623	11.6405
688.697	13.4577
694.77	12.5658
700.844	5.09329
706.917	10.5005
712.99	13.8807
719.064	19.1392
725.137	15.0059
731.21	22.2585
737.284	23.738
743.357	26.426
749.431	25.0807
755.504	35.9877
761.577	25.7807
767.651	28.8256
773.724	31.3153
779.798	36.3099
785.871	44.215
791.944	36.7621
798.018	31.7565
804.091	48.2941
810.164	39.6325
816.238	39.2427
822.311	38.2892
828.385	42.1156
834.458	47.9781
840.531	54.9108
846.605	42.6737
852.678	46.8366
858.752	46.6185
864.825	42.0414
870.898	41.8646
876.972	29.046
883.045	28.3353
889.119	20.4318
895.192	13.6283
901.265	14.9724
907.339	17.0985
913.412	-0.652411
919.485	0.27435
925.559	8.45316
931.632	-0.194115
937.706	6.535
943.779	-2.76334
949.852	-3.76296
955.926	2.70896
961.999	-0.676908
968.073	-9.58278
974.146	-9.50494
980.219	-10.9733
986.293	-20.8064
992.366	-22.188
998.439	-17.5199
1004.51	-11.7871
1010.59	-20.9781
1016.66	-16.5941
1022.73	-9.54887
1028.81	-23.9876
1034.88	-22.1312
1040.95	-19.5694
1047.03	-11.1671
1053.1	-14.8625
1059.17	-20.1605
1065.25	-16.6332
1071.32	-20.8324
1077.39	-22.2692
1083.47	-14.3583
1089.54	-9.04296
1095.61	-23.8086
1101.69	-24.6756
1107.76	-13.9928
1113.83	-14.1917
1119.91	-16.2159
1125.98	-21.6708
1132.05	-2.38764
1138.13	6.4666
1144.2	11.165
1150.27	22.966
1156.35	17.035
1162.42	25.1725
1168.49	24.595
1174.57	33.2095
1180.64	29.1514
1186.71	30.8662
1192.79	23.4851
1198.86	32.7552
1204.93	38.8135
1211.01	34.3464
1217.08	38.8413
1223.15	44.9504
1229.23	62.0013
1235.3	63.1189
1241.375	65.8717
1247.45	75.6837
1253.52	87.1106
1259.6	120.169
1265.67	129.598
1271.74	140.382
1277.82	193.592
1283.89	218.235
1289.96	256.761
1296.04	299.046
1302.11	348.811
1308.18	355.281
1314.26	424.515
1320.33	486.086
1326.4	520.251
1332.48	576.25
1338.55	552.542
1344.62	591.869
1350.7	588.552
1356.77	561.381
1362.84	520.705
1368.92	456.279
1374.99	409.528
1381.06	363.652
1387.14	322.858
1393.21	274.851
1399.28	234.934
1405.36	209.401
1411.43	152.731
1417.5	132.406
1423.58	99.954
1429.65	98.2761
1435.72	59.1446
1441.8	61.0857
1447.87	60.4339
1453.94	35.1619
1460.02	9.75889
1466.09	13.1662
1472.16	10.1668
1478.24	-5.7441
1484.31	-10.1453
1490.38	17.3813
1496.46	28.3003
1502.53	30.1959
1508.6	42.776
1514.68	74.5536
1520.75	89.5043
1526.82	101.869
1532.9	127.886
1538.97	169.92
1545.04	180.479
1551.12	235.715
1557.19	290.957
1563.26	334.939
1569.34	384.075
1575.41	472.081
1581.48	539.655
1587.56	608.384
1593.63	651.201
1599.7	693.086
1605.78	700.899
1611.85	656.035
1617.92	568.97
1624	477.119
1630.07	383.529
1636.15	294.766
1642.22	234.104
1648.29	162.31
1654.37	133.177
1660.44	103.63
1666.51	54.2583
1672.59	35.1679
1678.66	23.1569
1684.73	11.0998
1690.81	5.43484
1696.88	2.43457
1702.95	3.88663
1709.03	5.17568
1715.1	5.34932
1721.17	-11.8589
1727.25	-4.96449
1733.32	-3.13822
1739.39	-3.71024
1745.47	-2.09244
1751.54	-3.86609
1757.61	-4.88072
1763.69	-1.48719
1769.76	7.02835
1775.83	-3.06318
1781.91	2.75843
1787.98	8.75676
1794.05	10.5303
1800.13	6.01106
1806.2	4.39993
1812.27	9.55059
1818.35	7.08313
1824.42	1.86725
1830.49	4.91817
1836.57	7.18024
1842.64	11.2467
1848.71	-4.9789
1854.79	10.5507
1860.86	3.23221
1866.93	11.6241
1873.01	9.93776
1879.08	4.57547
1885.15	10.9869
1891.23	3.13255
1897.3	-0.500028
1903.37	11.3659
1909.45	8.61468
1915.52	8.96973
1921.59	10.8838
1927.67	3.54845
1933.74	-2.05229
1939.81	12.6202
1945.89	18.7105
1951.96	10.2628
1958.03	5.94594
1964.11	5.30739
1970.18	14.8822
1976.25	14.9821
1982.33	12.2976
1988.4	6.28333
1994.47	7.1546
2000.55	6.32592
2006.62	14.1805
2012.7	3.27985
2018.77	7.25794
2024.84	3.04906
2030.92	-0.74066
2036.99	-1.21291
2043.06	-0.508526
2049.14	-2.86284
2055.21	5.24056
2061.28	3.66047
2067.36	-4.04427
2073.43	3.94343
2079.5	-2.46565
2085.58	-6.24796
2091.65	0.194457
2097.72	0.651104
2100	-2.38953