File: Example Data/Raman/CNT - TIM/Raytheon/Al foil/2010/08-12-10/Al batch 16 - top.txt
300	-25.2141
306.073	-20.2649
312.147	-16.5665
318.22	-32.025
324.294	-18.2258
330.367	-19.8897
336.44	-12.474
342.514	-15.0956
348.587	-22.0557
354.66	-4.04604
360.734	-15.6357
366.807	-17.5379
372.881	-11.3496
378.954	-17.1473
385.027	-18.8696
391.101	-11.5557
397.174	-5.02188
403.248	-16.7138
409.321	3.99376
415.394	-3.2811
421.468	-8.05826
427.541	-3.82292
433.615	-6.71668
439.688	-7.9831
445.761	1.90128
451.835	-10.481
457.908	3.77935
463.981	0.98952
470.055	-4.48681
476.128	-1.52158
482.202	-1.79884
488.275	6.02062
494.348	-1.77847
500.422	-1.87377
506.495	-5.48024
512.569	-3.32908
518.642	-0.157874
524.715	0.291102
530.789	2.24029
536.862	-4.53808
542.935	2.95074
549.009	8.97167
555.082	0.225168
561.156	-0.702578
567.229	-0.43908
573.302	4.04389
579.376	11.3543
585.449	12.5651
591.523	2.9979
597.596	10.6271
603.669	5.71482
609.743	6.28229
615.816	6.79129
621.89	5.86716
627.963	1.4954
634.036	12.3345
640.11	9.49795
646.183	25.6653
652.256	6.07863
658.33	12.9194
664.403	10.4042
670.477	19.6451
676.55	16.3822
682.623	17.4895
688.697	15.9562
694.77	19.0507
700.844	14.505
706.917	9.23002
712.99	9.50515
719.064	20.5987
725.137	17.1625
731.21	31.0012
737.284	30.043
743.357	31.773
749.431	28.7074
755.504	41.7608
761.577	33.5558
767.651	33.6497
773.724	42.5506
779.798	45.0193
785.871	46.9867
791.944	38.1416
798.018	49.6119
804.091	46.86
810.164	48.9967
816.238	51.0164
822.311	42.1898
828.385	51.0264
834.458	49.847
840.531	58.9941
846.605	57.2314
852.678	55.8994
858.752	48.9771
864.825	54.7664
870.898	40.6303
876.972	35.6907
883.045	35.2431
889.119	29.9071
895.192	17.0453
901.265	8.36092
907.339	16.8937
913.412	7.90637
919.485	9.81194
925.559	14.1054
931.632	8.03283
937.706	17.9314
943.779	6.86922
949.852	14.5315
955.926	1.47671
961.999	13.2514
968.073	-0.976954
974.146	1.98216
980.219	-6.45866
986.293	-1.51809
992.366	-5.6104
998.439	-2.61612
1004.51	3.84825
1010.59	-17.9416
1016.66	2.56645
1022.73	4.71626
1028.81	13.0834
1034.88	9.20183
1040.95	18.8828
1047.03	8.55571
1053.1	-0.624268
1059.17	-9.2873
1065.25	13.7083
1071.32	5.93436
1077.39	0.0597487
1083.47	1.83254
1089.54	3.64855
1095.61	12.8695
1101.69	13.5887
1107.76	7.71094
1113.83	13.2603
1119.91	3.02843
1125.98	9.58745
1132.05	26.6719
1138.13	16.6429
1144.2	30.1842
1150.27	39.9366
1156.35	35.3397
1162.42	44.8269
1168.49	32.725
1174.57	55.6083
1180.64	41.4739
1186.71	33.8297
1192.79	28.4872
1198.86	45.5942
1204.93	57.8291
1211.01	53.7767
1217.08	66.1965
1223.15	69.7887
1229.23	97.7342
1235.3	94.5992
1241.375	112.081
1247.45	121.389
1253.52	144.01
1259.6	162.487
1265.67	214.282
1271.74	224.049
1277.82	248.95
1283.89	303.674
1289.96	343.307
1296.04	408.221
1302.11	428.972
1308.18	544.679
1314.26	640.896
1320.33	727.943
1326.4	831.588
1332.48	882.756
1338.55	963.953
1344.62	984.941
1350.7	940.377
1356.77	885.104
1362.84	826.669
1368.92	722.892
1374.99	630.431
1381.06	543.785
1387.14	445.949
1393.21	400.1
1399.28	306.266
1405.36	263.531
1411.43	225.065
1417.5	189.107
1423.58	150.118
1429.65	105.279
1435.72	106.326
1441.8	76.5095
1447.87	50.8608
1453.94	31.8124
1460.02	28.7656
1466.09	2.2686
1472.16	14.9061
1478.24	21.8438
1484.31	-9.91716
1490.38	-0.52042
1496.46	12.6598
1502.53	9.54806
1508.6	24.1931
1514.68	22.8857
1520.75	78.6797
1526.82	99.8107
1532.9	149.406
1538.97	187.877
1545.04	234.558
1551.12	330.173
1557.19	432.6
1563.26	496.739
1569.34	591.251
1575.41	698.921
1581.48	791.162
1587.56	879.739
1593.63	924.376
1599.7	930.019
1605.78	916.815
1611.85	887.238
1617.92	775.873
1624	666.597
1630.07	519.065
1636.15	416.525
1642.22	320.3
1648.29	238.89
1654.37	164.209
1660.44	111.102
1666.51	77.1339
1672.59	34.7298
1678.66	20.0377
1684.73	2.47424
1690.81	2.11203
1696.88	-9.30539
1702.95	2.5014
1709.03	8.23135
1715.1	-2.70541
1721.17	-4.80768
1727.25	-1.96115
1733.32	-1.45549
1739.39	4.10567
1745.47	2.99735
1751.54	8.90975
1757.61	7.25025
1763.69	11.5974
1769.76	7.75534
1775.83	12.0659
1781.91	16.8861
1787.98	8.43333
1794.05	12.3903
1800.13	7.53718
1806.2	14.0095
1812.27	3.75045
1818.35	15.0929
1824.42	9.47295
1830.49	10.5316
1836.57	13.6239
1842.64	15.0884
1848.71	16.4787
1854.79	10.8417
1860.86	5.55442
1866.93	1.46136
1873.01	-0.550842
1879.08	11.5768
1885.15	11.4855
1891.23	-0.269636
1897.3	3.84325
1903.37	18.6449
1909.45	3.02259
1915.52	6.22409
1921.59	21.2437
1927.67	5.09492
1933.74	8.12509
1939.81	7.17997
1945.89	12.7749
1951.96	2.59992
1958.03	7.61323
1964.11	17.1756
1970.18	12.4181
1976.25	10.0682
1982.33	7.47803
1988.4	13.9653
1994.47	7.64136
2000.55	12.9795
2006.62	12.8866
2012.7	14.0115
2018.77	14.868
2024.84	16.9341
2030.92	8.23245
2036.99	10.0851
2043.06	19.0208
2049.14	7.60134
2055.21	3.36684
2061.28	5.9441
2067.36	13.0534
2073.43	5.8826
2079.5	19.3893
2085.58	14.0252
2091.65	14.6722
2097.72	13.0686
2100	9.81197