File: Example Data/Raman/CNT - TIM/Raytheon/Al foil/2010/08-12-10/Al batch 16 - bottom_1.txt
300	79.6246
306.073	90.8443
312.147	79.0112
318.22	87.652
324.294	76.8562
330.367	77.9206
336.44	83.9518
342.514	58.4495
348.587	71.6976
354.66	79.5634
360.734	73.6078
366.807	67.2981
372.881	77.5734
378.954	58.6806
385.027	62.4519
391.101	60.1263
397.174	62.488
403.248	77.4289
409.321	64.2702
415.394	60.7562
421.468	54.5802
427.541	60.4576
433.615	49.0105
439.688	58.765
445.761	56.6771
451.835	40.4406
457.908	40.6058
463.981	41.7006
470.055	38.6578
476.128	39.0301
482.202	36.6261
488.275	23.9018
494.348	27.9186
500.422	20.4476
506.495	14.1578
512.569	12.007
518.642	12.1412
524.715	12.8716
530.789	10.7405
536.862	10.9861
542.935	5.93285
549.009	12.9069
555.082	10.5512
561.156	6.10745
567.229	6.06374
573.302	2.00152
579.376	5.28821
585.449	13.1342
591.523	4.50836
597.596	8.03774
603.669	6.0581
609.743	5.79062
615.816	8.58806
621.89	13.7446
627.963	13.981
634.036	7.73021
640.11	23.2899
646.183	6.86242
652.256	12.2338
658.33	10.5188
664.403	13.2789
670.477	8.81834
676.55	3.11699
682.623	13.9379
688.697	27.1235
694.77	14.4778
700.844	21.4877
706.917	6.6577
712.99	13.0278
719.064	29.7668
725.137	23.2328
731.21	20.0068
737.284	22.4127
743.357	27.0292
749.431	29.6692
755.504	34.5112
761.577	28.824
767.651	36.9015
773.724	20.9139
779.798	25.7293
785.871	39.6864
791.944	31.3658
798.018	44.9174
804.091	40.2363
810.164	44.8973
816.238	47.7994
822.311	46.4028
828.385	51.2892
834.458	49.6155
840.531	47.933
846.605	54.0289
852.678	60.5201
858.752	49.2215
864.825	37.6713
870.898	36.0588
876.972	22.4066
883.045	29.8902
889.119	21.1652
895.192	14.0545
901.265	5.033
907.339	2.13758
913.412	0.547852
919.485	2.61796
925.559	-2.5883
931.632	1.17324
937.706	-1.48789
943.779	-9.58759
949.852	-7.46862
955.926	-12.8016
961.999	-8.64812
968.073	-13.4417
974.146	-29.6402
980.219	-29.1596
986.293	-29.3616
992.366	-37.2459
998.439	-34.0642
1004.51	-43.1379
1010.59	-38.4725
1016.66	-40.2306
1022.73	-33.2188
1028.81	-28.5884
1034.88	-39.3833
1040.95	-30.5256
1047.03	-39.1021
1053.1	-32.6963
1059.17	-34.167
1065.25	-34.9876
1071.32	-32.3214
1077.39	-29.3297
1083.47	-26.8996
1089.54	-23.8144
1095.61	-23.1127
1101.69	-23.337
1107.76	-20.4811
1113.83	-13.807
1119.91	-20.6021
1125.98	-18.1162
1132.05	-10.7142
1138.13	-6.0362
1144.2	-14.5051
1150.27	-11.119
1156.35	-8.55383
1162.42	-11.3859
1168.49	-6.0997
1174.57	-2.68005
1180.64	-0.724273
1186.71	2.09854
1192.79	-12.7991
1198.86	4.00024
1204.93	1.27258
1211.01	2.73151
1217.08	9.84317
1223.15	32.2195
1229.23	42.4492
1235.3	47.8723
1241.375	64.2315
1247.45	81.7944
1253.52	77.7538
1259.6	122.755
1265.67	104.425
1271.74	173.452
1277.82	206.917
1283.89	260.827
1289.96	301.246
1296.04	352.265
1302.11	433.036
1308.18	516.043
1314.26	610.376
1320.33	702.415
1326.4	884.726
1332.48	960.371
1338.55	1134.47
1344.62	1159.09
1350.7	1188.11
1356.77	1128.64
1362.84	1009.07
1368.92	881.953
1374.99	740.362
1381.06	632.199
1387.14	516.142
1393.21	427.692
1399.28	362.832
1405.36	277.562
1411.43	211.049
1417.5	171.641
1423.58	142.968
1429.65	107.786
1435.72	92.9901
1441.8	59.5966
1447.87	55.5769
1453.94	38.8203
1460.02	39.0218
1466.09	11.961
1472.16	0.76911
1478.24	12.0433
1484.31	29.5377
1490.38	19.7189
1496.46	52.9675
1502.53	50.6683
1508.6	80.9335
1514.68	120.051
1520.75	140.036
1526.82	182.428
1532.9	220.825
1538.97	277.543
1545.04	350.416
1551.12	459.698
1557.19	570.352
1563.26	678.479
1569.34	864.106
1575.41	978.13
1581.48	1117.93
1587.56	1252.16
1593.63	1277.46
1599.7	1297.15
1605.78	1251.97
1611.85	1174.65
1617.92	1078.61
1624	969.456
1630.07	797.853
1636.15	634.549
1642.22	469.268
1648.29	313.307
1654.37	235.067
1660.44	166.213
1666.51	108.199
1672.59	65.7872
1678.66	35.0725
1684.73	7.99144
1690.81	0.569714
1696.88	-6.34065
1702.95	-2.81242
1709.03	-3.07266
1715.1	2.47778
1721.17	0.273811
1727.25	-7.52672
1733.32	-3.6832
1739.39	4.84963
1745.47	-6.5994
1751.54	-0.864336
1757.61	-2.91823
1763.69	-2.56811
1769.76	-3.75431
1775.83	-5.38867
1781.91	-2.54249
1787.98	3.6491
1794.05	-3.8487
1800.13	7.76015
1806.2	-2.46645
1812.27	-8.63988
1818.35	-2.60483
1824.42	-11.732
1830.49	4.87984
1836.57	1.71012
1842.64	-4.25439
1848.71	3.31088
1854.79	-1.30826
1860.86	4.02535
1866.93	-0.695423
1873.01	-4.65596
1879.08	-2.98841
1885.15	-7.55001
1891.23	-6.954
1897.3	-3.09405
1903.37	1.30614
1909.45	3.86011
1915.52	-2.12349
1921.59	4.49292
1927.67	-2.70141
1933.74	-4.64344
1939.81	-1.45505
1945.89	-0.940605
1951.96	-3.61115
1958.03	2.89051
1964.11	3.91262
1970.18	-5.34103
1976.25	0.708664
1982.33	-0.663559
1988.4	0.505966
1994.47	-2.07285
2000.55	-0.190887
2006.62	-1.82246
2012.7	-2.56107
2018.77	9.94199
2024.84	4.49117
2030.92	6.14973
2036.99	2.91341
2043.06	3.05276
2049.14	-3.59547
2055.21	-0.421097
2061.28	4.72406
2067.36	7.06042
2073.43	1.8289
2079.5	3.75366
2085.58	0.00813293
2091.65	0.247543
2097.72	3.03984
2100	-0.978218