File: Example Data/Raman/CNT - TIM/Raytheon/Al foil/2010/08-12-10/Al batch 14 - top_1.txt
300	-14.2873
306.073	-3.86872
312.147	9.49091
318.22	-1.79842
324.294	3.83705
330.367	-2.70314
336.44	-0.957953
342.514	-0.87973
348.587	2.92597
354.66	-3.96975
360.734	8.89452
366.807	4.11934
372.881	-4.65888
378.954	-6.41354
385.027	-2.96209
391.101	-0.0492457
397.174	-1.8073
403.248	8.23018
409.321	0.229639
415.394	12.0828
421.468	8.18491
427.541	1.63209
433.615	-1.36971
439.688	3.9623
445.761	6.01547
451.835	2.88275
457.908	1.36753
463.981	6.87919
470.055	7.81026
476.128	3.0588
482.202	2.22415
488.275	-3.28402
494.348	2.20585
500.422	1.83204
506.495	-1.25007
512.569	2.89681
518.642	-0.782961
524.715	-3.03936
530.789	0.334085
536.862	-3.42125
542.935	1.13665
549.009	1.85034
555.082	5.20897
561.156	2.40983
567.229	4.99634
573.302	0.566319
579.376	-0.947274
585.449	2.4307
591.523	0.470502
597.596	2.40854
603.669	-0.0341002
609.743	-8.10719
615.816	-1.906
621.89	3.24848
627.963	-0.767427
634.036	-3.37727
640.11	4.07012
646.183	-6.59933
652.256	-4.2171
658.33	2.40851
664.403	4.85151
670.477	-8.88403
676.55	3.62535
682.623	10.4759
688.697	5.12273
694.77	5.34628
700.844	4.81087
706.917	12.0014
712.99	0.839827
719.064	11.3654
725.137	16.8394
731.21	15.8912
737.284	19.3841
743.357	15.1793
749.431	22.3722
755.504	26.291
761.577	31.0369
767.651	20.9957
773.724	26.8172
779.798	31.2289
785.871	32.4176
791.944	31.1966
798.018	36.6288
804.091	40.3169
810.164	49.1529
816.238	40.4658
822.311	44.2104
828.385	52.8649
834.458	45.6885
840.531	36.5497
846.605	46.8591
852.678	51.4802
858.752	51.8093
864.825	47.9664
870.898	34.7524
876.972	27.011
883.045	27.7733
889.119	25.8035
895.192	22.549
901.265	21.1563
907.339	16.6593
913.412	8.79818
919.485	16.9275
925.559	14.6422
931.632	0.850114
937.706	0.657631
943.779	13.7596
949.852	4.04245
955.926	-11.9517
961.999	-0.797795
968.073	-19.1041
974.146	-8.43861
980.219	-12.9415
986.293	-22.3438
992.366	-23.4933
998.439	-25.1711
1004.51	-24.4682
1010.59	-23.6827
1016.66	-25.9718
1022.73	-14.9272
1028.81	-16.0302
1034.88	-19.9999
1040.95	-20.8258
1047.03	-20.6672
1053.1	-16.0664
1059.17	-25.4066
1065.25	-26.2794
1071.32	-30.7456
1077.39	-17.2981
1083.47	-20.7444
1089.54	-25.6786
1095.61	-13.6471
1101.69	-16.8305
1107.76	-15.6086
1113.83	-17.1737
1119.91	-12.5553
1125.98	-3.34044
1132.05	-16.9441
1138.13	-8.23954
1144.2	-8.99849
1150.27	11.464
1156.35	24.0178
1162.42	-0.413811
1168.49	9.27284
1174.57	19.0514
1180.64	15.3494
1186.71	20.1481
1192.79	15.2659
1198.86	19.2943
1204.93	17.6446
1211.01	28.1782
1217.08	35.4802
1223.15	48.1339
1229.23	48.5983
1235.3	60.3116
1241.375	53.6007
1247.45	88.5171
1253.52	102.858
1259.6	112.102
1265.67	136.528
1271.74	149.807
1277.82	201.252
1283.89	247.918
1289.96	271.088
1296.04	324.045
1302.11	398.967
1308.18	452.495
1314.26	568.443
1320.33	654.131
1326.4	750.276
1332.48	835.507
1338.55	909.948
1344.62	947.924
1350.7	939.294
1356.77	886.975
1362.84	795.042
1368.92	693.525
1374.99	589.152
1381.06	518.427
1387.14	415.187
1393.21	360.894
1399.28	292.97
1405.36	229.166
1411.43	202.524
1417.5	153.53
1423.58	140.328
1429.65	87.051
1435.72	93.3296
1441.8	70.8565
1447.87	52.4916
1453.94	23.1248
1460.02	51.896
1466.09	9.5703
1472.16	11.6536
1478.24	0.982076
1484.31	2.14543
1490.38	7.90211
1496.46	13.6979
1502.53	22.9671
1508.6	49.9827
1514.68	81.3826
1520.75	108.289
1526.82	131.287
1532.9	144.154
1538.97	208.412
1545.04	242.02
1551.12	311.08
1557.19	404.392
1563.26	455.684
1569.34	573.475
1575.41	648.498
1581.48	772.245
1587.56	839.241
1593.63	913.227
1599.7	895.022
1605.78	892.358
1611.85	859.271
1617.92	805.417
1624	690.075
1630.07	571.089
1636.15	466.282
1642.22	355.147
1648.29	259.923
1654.37	185.678
1660.44	145.768
1666.51	102.095
1672.59	77.0608
1678.66	51.0173
1684.73	33.1139
1690.81	24.1832
1696.88	18.7758
1702.95	11.6925
1709.03	10.584
1715.1	2.0939
1721.17	4.65102
1727.25	2.45662
1733.32	1.88955
1739.39	-2.59549
1745.47	-3.57193
1751.54	-0.853008
1757.61	-4.86724
1763.69	-9.02551
1769.76	-8.24144
1775.83	-8.59185
1781.91	-4.9624
1787.98	-9.1905
1794.05	-4.35341
1800.13	-2.51966
1806.2	-8.05287
1812.27	-6.45253
1818.35	-7.83181
1824.42	-5.67392
1830.49	-4.25681
1836.57	-4.28421
1842.64	-9.29081
1848.71	-2.27037
1854.79	-2.42095
1860.86	0.483279
1866.93	-0.959764
1873.01	-5.99682
1879.08	-4.29504
1885.15	-3.88734
1891.23	-5.52974
1897.3	5.47269
1903.37	2.72148
1909.45	-2.02285
1915.52	-3.1661
1921.59	6.99093
1927.67	-0.480571
1933.74	1.09482
1939.81	-1.96964
1945.89	-6.53404
1951.96	-5.17846
1958.03	-2.79663
1964.11	-5.28057
1970.18	-6.74462
1976.25	-2.87079
1982.33	0.141409
1988.4	-1.36531
1994.47	1.098
2000.55	-2.51271
2006.62	0.303385
2012.7	1.75803
2018.77	3.44534
2024.84	1.44545
2030.92	-0.467561
2036.99	7.86739
2043.06	7.13954
2049.14	7.59329
2055.21	0.872253
2061.28	3.36958
2067.36	-1.83821
2073.43	2.11694
2079.5	6.21174
2085.58	3.51585
2091.65	4.2448
2097.72	3.54086
2100	5.33475