File: Example Data/Raman/Kara/05-28-10/Si wafer/Si 1.txt
200	114.251
208.696	113.004
217.391	115.982
226.087	117.597
234.783	125.652
243.478	127.415
252.174	126.492
260.87	119.603
269.565	125.56
278.261	128.582
286.957	126.884
295.652	135.733
304.348	138.915
313.043	125.461
321.739	112.475
330.435	115.711
339.13	114.4
347.826	101.179
356.522	110.099
365.217	95.9838
373.913	91.6473
382.609	86.5303
391.304	78.6382
400	76.2579
408.696	82.2209
417.391	76.8239
426.087	73.5197
434.783	73.4277
443.478	74.192
452.174	64.3406
460.87	62.2075
469.565	60.6618
478.261	63.9949
486.957	75.2511
495.652	87.2879
504.348	94.2169
513.043	202.951
521.739	3720.31
530.435	332.611
539.13	122.963
547.826	90.2362
556.522	72.4689
565.217	64.4646
573.913	67.095
582.609	64.1205
591.304	58.2318
600	59.1993
608.696	72.1797
617.391	70.5004
626.087	66.4261
634.783	69.659
643.478	74.2553
652.174	71.228
660.87	79.0846
669.565	84.7281
678.261	80.5498
686.957	79.8099
695.652	75.5214
704.348	81.3089
713.043	81.9618
721.739	80.2685
730.435	92.9672
739.13	89.1224
747.826	97.7076
756.522	99.7184
765.217	104.116
773.913	98.5233
782.609	108.558
791.304	110.696
800	115.572
808.696	125.146
817.391	126.555
826.087	130.669
834.783	125.726
843.478	135.531
852.174	123.005
860.87	131.134
869.565	123.099
878.261	111.219
886.957	103.92
895.652	94.8924
904.348	87.3943
913.043	79.9905
921.739	75.7245
930.435	84.4559
939.13	105.051
947.826	127.11
956.522	121.836
965.217	126.038
973.913	124.189
982.609	124.071
991.304	111.011
1000	83.4473
1008.7	71.2985
1017.39	68.3741
1026.09	61.6859
1034.78	58.7028
1043.48	55.4749
1052.17	37.6111
1060.87	37.6532
1069.57	37.9587
1078.26	31.4018
1086.96	29.9694
1095.65	23.4086
1104.35	23.8177
1113.04	18.2
1121.74	21.3081
1130.43	20.3168
1139.13	16.601
1147.83	13.8686
1156.52	11.5436
1165.22	11.3757
1173.91	12.2325
1182.61	12.1521
1191.3	12.46
1200	7.25105
1208.7	5.91183
1217.39	5.34936
1226.09	10.0327
1234.78	11.584
1243.48	3.15704
1252.17	7.65202
1260.87	7.21974
1269.57	8.95653
1278.26	4.71188
1286.96	9.53454
1295.65	4.55611
1304.35	5.57056
1313.04	3.23415
1321.74	5.42601
1330.43	10.0297
1339.13	7.48517
1347.83	11.2518
1356.52	5.85298
1365.22	6.17666
1373.91	11.9708
1382.61	5.58971
1391.3	6.9396
1400	7.28205
1408.7	8.0173
1417.39	6.67919
1426.09	2.44468
1434.78	3.73525
1443.48	9.35097
1452.17	8.95797
1460.87	7.37381
1469.57	8.81216
1478.26	5.8522
1486.96	5.40076
1495.65	7.31741
1504.35	5.31443
1513.04	7.72402
1521.74	9.05145
1530.43	7.11013
1539.13	4.68294
1547.83	5.62092
1556.52	18.8412
1565.22	1.8481
1573.91	1.12311
1582.61	9.57196
1591.3	8.16643
1600	7.80888
1608.7	9.25329
1617.39	6.93644
1626.09	5.65728
1634.78	9.013
1643.48	9.85943
1652.17	11.7581
1660.87	8.11611
1669.57	12.3774
1678.26	12.7541
1686.96	13.0138
1695.65	11.8647
1704.35	11.3035
1713.04	11.5153
1721.74	7.86025
1730.43	1.98661
1739.13	5.14076
1747.83	7.70419
1756.52	5.11264
1765.22	1.74456
1773.91	7.18344
1782.61	3.03706
1791.3	3.29132
1800	4.1751
1808.7	3.82377
1817.39	4.90438
1826.09	7.2979
1834.78	5.8129
1843.48	4.4
1852.17	7.29587
1860.87	4.81691
1869.57	5.80137
1878.26	5.98334
1886.96	5.66977
1895.65	6.43098
1904.35	7.84912
1913.04	6.28268
1921.74	6.80571
1930.43	8.04953
1939.13	5.35053
1947.83	7.85705
1956.52	7.39871
1965.22	6.72144
1973.91	6.82362
1982.61	2.12256
1991.3	6.53658
2000	3.93866
2008.7	10.1259
2017.39	4.10512
2026.09	9.60423
2034.78	7.29863
2043.48	10.513
2052.17	6.99289
2060.87	11.0376
2069.57	9.80931
2078.26	11.2013
2086.96	5.86917
2095.65	8.95756
2104.35	10.9645
2113.04	8.1783
2121.74	6.56331
2130.43	10.4337
2139.13	9.08429
2147.83	10.0269
2156.52	6.60379
2165.22	8.76369
2173.91	10.4529
2182.61	8.82399
2191.3	13.4978
2200	8.68782
2208.7	12.5315
2217.39	10.9869
2226.09	10.4662
2234.78	10.1177
2243.48	12.264
2252.17	14.3709
2260.87	13.5761
2269.57	13.9019
2278.26	12.4828
2286.96	15.9753
2295.65	15.9871
2304.35	14.1124
2313.04	15.074
2321.74	15.6566
2330.43	63.3582
2339.13	19.0368
2347.83	13.2
2356.52	12.9636
2365.22	17.8868
2373.91	15.5322
2382.61	12.6826
2391.3	14.0623
2400	11.933
2408.7	12.8794
2417.39	16.9598
2426.09	15.8438
2434.78	14.4286
2443.48	14.979
2452.17	23.063
2460.87	16.223
2469.57	18.3161
2478.26	18.233
2486.96	18.596
2495.65	15.9686
2504.35	18.5977
2513.04	14.0364
2521.74	19.4
2530.43	14.5336
2539.13	19.6858
2547.83	18.8169
2556.52	20.6378
2565.22	15.438
2573.91	16.686
2582.61	19.0807
2591.3	16.242
2600	19.9348
2608.7	15.9035
2617.39	14.5127
2626.09	18.0015
2634.78	18.5939
2643.48	17.3926
2652.17	18.9688
2660.87	16.4733
2669.57	14.0509
2678.26	19.7361
2686.96	19.9187
2695.65	21.2687
2704.35	16.2448
2713.04	15.588
2721.74	15.2783
2730.43	17.1418
2739.13	15.6229
2747.83	18.2983
2756.52	21.2407
2765.22	17.056
2773.91	18.6009
2782.61	20.4522
2791.3	25.0654
2800	27.2303