File: Example Data/Raman/Kara/12-20-10/Si-Graphene/2 etoh dispersed/SG_3.txt
400	127.555
412.576	161.667
425.152	196.152
437.729	208.067
450.305	225.029
462.881	270.504
475.457	325.073
488.034	469.172
500.61	778.122
513.186	1213.04
525.762	310.644
538.338	139.033
550.915	101.362
563.491	91.0849
576.067	89.1446
588.643	93.2446
601.219	99.9209
613.796	88.6825
626.372	87.2307
638.948	83.5226
651.524	90.5019
664.101	84.0665
676.677	74.5728
689.253	75.0613
701.829	73.5677
714.406	68.969
726.982	71.6335
739.558	74.6433
752.134	80.7897
764.71	83.6723
777.287	89.8697
789.863	88.7187
802.439	90.4193
815.015	97.2253
827.591	88.3051
840.168	95.1864
852.744	97.6732
865.32	101.092
877.896	106.606
890.473	111.322
903.049	127.246
915.625	145.288
928.201	145.631
940.777	131.742
953.354	115.933
965.93	95.7453
978.506	79.3128
991.082	66.5501
1003.66	59.7235
1016.23	58.6321
1028.81	51.3824
1041.39	51.603
1053.96	52.346
1066.54	43.168
1079.12	42.1404
1091.69	42.7064
1104.27	37.8
1116.84	38.2406
1129.42	32.4773
1142	37.8218
1154.57	33.4368
1167.15	33.3224
1179.73	33.6631
1192.3	36.7674
1204.88	35.6928
1217.45	37.1295
1230.03	43.3862
1242.61	42.0011
1255.18	45.2
1267.76	42.6067
1280.34	49.6637
1292.91	52.1923
1305.49	55.3729
1318.06	57.2585
1330.64	58.5153
1343.22	67.089
1355.79	67.5096
1368.37	68.5108
1380.95	63.1429
1393.52	51.6599
1406.1	54.6969
1418.67	49.5264
1431.25	47.7056
1443.83	43.8776
1456.4	48.7595
1468.98	49.7868
1481.55	48.921
1494.13	48.2836
1506.71	48.9374
1519.28	45.4199
1531.86	54.9458
1544.44	50.1492
1557.01	57.7986
1569.59	59.6617
1582.16	68.5529
1594.74	64.6503
1607.32	58.2954
1619.89	50.3937
1632.47	52.5403
1645.05	44.2576
1657.62	41.4833
1670.2	38.6
1682.77	45.8853
1695.35	39.6676
1707.93	37.7565
1720.5	37.0434
1733.08	41.2792
1745.66	44.0836
1758.23	43.9029
1770.81	37.3353
1783.38	45.8587
1795.96	44.1453
1808.54	42.9852
1821.11	47.5757
1833.69	47.5962
1846.27	43.9713
1858.84	43.9308
1871.42	48.9071
1883.99	46.2816
1896.57	49.9178
1909.15	47.8288
1921.72	44.6072
1934.3	53.8367
1946.875	52.0611
1959.45	50.8092
1972.03	53.2741
1984.6	48.8887
1997.18	55.7103
2009.76	53.8004
2022.33	53.9787
2034.91	59.4088
2047.48	54.0214
2060.06	60.747
2072.64	54.5252
2085.21	52.1412
2097.79	58.2924
2110.37	58.02
2122.94	59.0215
2135.52	62.6052
2148.09	65.2954
2160.67	69.8945
2173.25	63.8808
2185.82	67.1936
2198.4	65.0342
2210.98	65.9592
2223.55	71.777
2236.13	72.6676
2248.7	76.2108
2261.28	71.8564
2273.86	66.6161
2286.43	76.0326
2299.01	78.0751
2311.59	79.6637
2324.16	82.0279
2336.74	91.8844
2349.31	77.3211
2361.89	81.6536
2374.47	82.9299
2387.04	84.9303
2399.62	90.7647
2412.2	91.0485
2424.77	101.915
2437.35	112.813
2449.92	115.94
2462.5	107.522
2475.08	103.185
2487.65	104.116
2500.23	105.184
2512.8	108.048
2525.38	108.291
2537.96	107.352
2550.53	111.61
2563.11	109.447
2575.69	110.812
2588.26	119.11
2600.84	117.222
2613.41	122.181
2625.99	118.195
2638.57	114.109
2651.14	119.985
2663.72	124.069
2676.3	128.03
2688.87	135.769
2701.45	128.187
2714.02	138.283
2726.6	143.329
2739.18	137.408
2751.75	141.151
2764.33	142.954
2776.91	149.524
2789.48	146.585
2802.06	151.236
2814.63	148.46
2827.21	146.868
2839.79	152.764
2852.36	164.517
2864.94	160.357
2877.52	164.307
2890.09	167.022
2902.67	175.186
2915.24	175.989
2927.82	179.964
2940.4	186.994
2952.97	190.779
2965.55	191.777
2978.125	189.882
2990.7	185.522
3003.28	191.473
3015.85	194.796
3028.43	196.617
3041.01	201.884
3053.58	203.748
3066.16	209.304
3078.73	209.29
3091.31	208.825
3103.89	213.737
3116.46	219.367
3129.04	241.121
3141.62	222.237
3154.19	228.156
3166.77	239.848
3179.34	242.096
3191.92	238.636
3204.5	243.917
3217.07	243.335
3229.65	257.03
3242.23	249.314
3254.8	261.847
3267.38	251.352
3279.95	278.901
3292.53	274.172
3305.11	283.703
3317.68	289.992
3330.26	296.767
3342.84	291.293
3355.41	295.545
3367.99	301.522
3380.56	302.163
3393.14	316.931
3405.72	308.98
3418.29	318.005
3430.87	335.616
3443.45	324.937
3456.02	331.636
3468.6	336.808
3481.17	346.852
3493.75	363.467
3506.33	360.883
3518.9	356.281
3531.48	375.861
3544.05	372.792
3556.63	374.608
3569.21	374.052
3581.78	388.918
3594.36	385.324
3606.94	400.361
3619.51	394.33
3632.09	421.625
3644.66	415.537
3657.24	409.528
3669.82	428.84
3682.39	427.577
3694.97	437.439
3700	444.802