File: Example Data/Raman/Kara/12-20-10/Si-Graphene/2 etoh dispersed/SG_4.txt
400	112.924
412.576	120.453
425.152	129.243
437.729	141.171
450.305	128.423
462.881	98.5288
475.457	94.2327
488.034	124.712
500.61	145.682
513.186	305.281
525.762	4454.76
538.338	2125.96
550.915	387.879
563.491	224.173
576.067	164.585
588.643	138.087
601.219	133.445
613.796	131.494
626.372	164.646
638.948	139.312
651.524	134.651
664.101	129.65
676.677	129.504
689.253	133.668
701.829	121.14
714.406	106.384
726.982	96.9443
739.558	117.959
752.134	108.659
764.71	113.717
777.287	110.985
789.863	119.634
802.439	130.938
815.015	146.112
827.591	145.052
840.168	140.445
852.744	146.178
865.32	134.754
877.896	136.001
890.473	126.194
903.049	118.137
915.625	122.195
928.201	124.156
940.777	220.392
953.354	373.728
965.93	371.218
978.506	367.977
991.082	392.635
1003.66	237.772
1016.23	154.221
1028.81	126.199
1041.39	89.1585
1053.96	69.6326
1066.54	60.8892
1079.12	51.3411
1091.69	45.8081
1104.27	38.1097
1116.84	39.5599
1129.42	41.6167
1142	33.9988
1154.57	35.9409
1167.15	31.2925
1179.73	32.2108
1192.3	27.2
1204.88	28.9867
1217.45	28.2705
1230.03	26.5238
1242.61	28.6127
1255.18	28.2563
1267.76	34.0245
1280.34	26.7318
1292.91	27.7275
1305.49	28.8324
1318.06	30.0351
1330.64	29.6222
1343.22	29.4755
1355.79	28.7822
1368.37	28.8868
1380.95	31.0958
1393.52	29.264
1406.1	26.8824
1418.67	29.1292
1431.25	31.7291
1443.83	24.872
1456.4	35.4196
1468.98	33.5525
1481.55	28.4039
1494.13	28.6545
1506.71	28.4282
1519.28	25.5205
1531.86	24.0336
1544.44	23.9929
1557.01	25.4319
1569.59	28.5449
1582.16	24.6866
1594.74	25.7539
1607.32	24.1649
1619.89	26.4
1632.47	24.0119
1645.05	26.2564
1657.62	21.7659
1670.2	28.1487
1682.77	22.8015
1695.35	25.8484
1707.93	23.2866
1720.5	18.4651
1733.08	28.1465
1745.66	22.6724
1758.23	19.0743
1770.81	21.4142
1783.38	24.9125
1795.96	22.3453
1808.54	25.2842
1821.11	22.1707
1833.69	16.1298
1846.27	20.2651
1858.84	23.431
1871.42	18.6785
1883.99	20.009
1896.57	21.8274
1909.15	24.2547
1921.72	22.0988
1934.3	25.5697
1946.875	24.954
1959.45	21.6931
1972.03	22.7587
1984.6	22.0845
1997.18	20.5579
2009.76	23.1369
2022.33	22.2266
2034.91	23.1211
2047.48	22.2641
2060.06	24.9294
2072.64	22.9079
2085.21	19.7985
2097.79	21.558
2110.37	23.5775
2122.94	23.2936
2135.52	23.988
2148.09	25.1413
2160.67	23.8255
2173.25	25.0583
2185.82	23.3954
2198.4	27.3156
2210.98	21.2387
2223.55	27.1432
2236.13	26.1271
2248.7	25.782
2261.28	29.4332
2273.86	27.4732
2286.43	26.0096
2299.01	32.561
2311.59	27.4286
2324.16	26.2897
2336.74	77.3729
2349.31	27.1081
2361.89	23.9758
2374.47	29.6078
2387.04	31.8275
2399.62	32.4361
2412.2	33.4734
2424.77	34.1144
2437.35	42.1293
2449.92	39.2833
2462.5	35.8556
2475.08	38.6387
2487.65	33.6731
2500.23	34.8611
2512.8	34.3716
2525.38	34.9645
2537.96	31.5657
2550.53	32.3585
2563.11	37.1467
2575.69	35.8132
2588.26	36.9362
2600.84	35.5924
2613.41	36.3877
2625.99	34.0488
2638.57	33.1862
2651.14	36.5675
2663.72	37.4801
2676.3	35.4814
2688.87	38.0791
2701.45	37.9557
2714.02	40.0947
2726.6	38.8325
2739.18	39.0859
2751.75	36.1987
2764.33	42.9298
2776.91	39.2535
2789.48	37.6585
2802.06	42
2814.63	42.6797
2827.21	36.273
2839.79	44.413
2852.36	41.8894
2864.94	41.9207
2877.52	40.7988
2890.09	47.8483
2902.67	43.8646
2915.24	42.6941
2927.82	40.5265
2940.4	48.18
2952.97	44.1551
2965.55	44.9723
2978.125	44.7344
2990.7	45.9012
3003.28	42.7865
3015.85	43.949
3028.43	47.1738
3041.01	43.5582
3053.58	41.8875
3066.16	44.0838
3078.73	48.9998
3091.31	47.6664
3103.89	46.798
3116.46	47.4967
3129.04	44.0812
3141.62	54.9638
3154.19	49.9369
3166.77	47.8702
3179.34	47.6048
3191.92	48.3318
3204.5	51.184
3217.07	51.7205
3229.65	50.4411
3242.23	53.3549
3254.8	50.6509
3267.38	50.0056
3279.95	53.5695
3292.53	51.6983
3305.11	49.4629
3317.68	56.9323
3330.26	57.5233
3342.84	58.0401
3355.41	61.2765
3367.99	53.3899
3380.56	55.8054
3393.14	57.8606
3405.72	55.8915
3418.29	58.534
3430.87	49.7301
3443.45	54.723
3456.02	56.1987
3468.6	52.1999
3481.17	57.523
3493.75	57.4542
3506.33	55.075
3518.9	55.5331
3531.48	59.989
3544.05	52.9574
3556.63	59.9166
3569.21	54.9741
3581.78	56.133
3594.36	57.884
3606.94	62.6045
3619.51	61.1265
3632.09	59.0473
3644.66	56.6438
3657.24	56.6165
3669.82	67.6343
3682.39	61.7483
3694.97	58.9713
3700	58.3505