File: Example Data/Raman/CNT - TIM/Raytheon/Al foil/2010/01-04-10/Al - B23 - top_3.txt
200	129.787
206.534	133.42
213.067	145.361
219.601	144.025
226.135	137.094
232.669	139.365
239.202	138.374
245.736	129.232
252.27	129.475
258.803	131.598
265.337	133.746
271.871	125.283
278.404	123.666
284.938	117.051
291.472	118.638
298.005	114.531
304.539	116.425
311.073	115.171
317.607	102.41
324.14	105.102
330.674	114.058
337.208	106.284
343.741	90.0456
350.275	100.005
356.809	87.5725
363.342	100.888
369.876	92.8989
376.41	71.9698
382.944	84.8651
389.477	70.7332
396.011	75.7734
402.545	74.087
409.078	72.4449
415.612	62.5854
422.146	68.9476
428.68	67.9719
435.213	67.1586
441.747	50.7908
448.281	52.5214
454.814	45.9387
461.348	52.6753
467.882	43.5997
474.415	39.1458
480.949	28.975
487.483	19.5631
494.017	9.90672
500.55	16.851
507.084	7.5655
513.618	-2.52456
520.151	6.65752
526.685	0.0163335
533.219	-3.03938
539.752	-6.17832
546.286	5.711
552.82	-6.52364
559.354	-2.90738
565.887	-10.4238
572.421	11.5701
578.955	8.66156
585.488	12.5844
592.022	4.71615
598.556	1.18298
605.089	0.526555
611.623	-1.24881
618.157	3.85942
624.69	12.0707
631.224	21.6038
637.758	14.3774
644.292	11.4005
650.825	24.8173
657.359	14.3479
663.893	12.1455
670.426	9.31674
676.96	5.56043
683.494	10.8372
690.028	12.8712
696.561	5.69756
703.095	13.6106
709.629	10.2723
716.162	8.50315
722.696	11.7856
729.23	-2.03016
735.763	13.1738
742.297	32.849
748.831	25.8284
755.365	13.7837
761.898	21.942
768.432	9.64621
774.966	22.7169
781.499	17.172
788.033	32.5256
794.567	24.0736
801.1	39.5232
807.634	36.5768
814.168	38.3488
820.702	34.0888
827.235	32.7333
833.769	44.7539
840.303	44.4003
846.836	38.0669
853.37	59.4776
859.904	43.7915
866.437	33.352
872.971	27.8033
879.505	30.7412
886.039	33.9902
892.572	17.4902
899.106	14.6241
905.64	11.1213
912.173	14.716
918.707	15.8699
925.241	12.6272
931.774	8.59597
938.308	-5.49794
944.842	9.38417
951.375	-0.0602008
957.909	-5.82128
964.443	-0.0763464
970.977	-21.1115
977.51	-4.5295
984.044	-18.3994
990.578	-4.58142
997.111	-17.3438
1003.65	5.40921
1010.18	-7.59973
1016.71	6.03675
1023.25	9.11163
1029.78	3.53193
1036.31	4.24667
1042.85	8.26857
1049.38	8.93949
1055.91	3.58215
1062.45	14.4045
1068.98	4.01576
1075.52	-8.57215
1082.05	6.83233
1088.58	-1.50988
1095.12	12.5508
1101.65	6.42978
1108.18	12.4378
1114.72	19.2559
1121.25	31.3422
1127.79	26.1858
1134.32	50.9631
1140.85	42.7166
1147.39	78.8559
1153.92	99.823
1160.45	81.609
1166.99	115.023
1173.52	135.232
1180.06	116.336
1186.59	131.094
1193.12	127.926
1199.66	128.348
1206.19	136.061
1212.72	145.455
1219.26	166.378
1225.79	188.226
1232.32	224.766
1238.86	254.717
1245.39	262.71
1251.93	319.338
1258.46	364.842
1264.99	434.236
1271.53	497.394
1278.06	580.664
1284.59	636.975
1291.13	757.286
1297.66	864.31
1304.2	1012.54
1310.73	1125.52
1317.26	1302.1
1323.8	1439.76
1330.33	1573.69
1336.86	1684.46
1343.4	1737.47
1349.93	1751.16
1356.46	1673.07
1363	1575.33
1369.53	1454.06
1376.07	1285.4
1382.6	1100.24
1389.13	933.828
1395.67	795.864
1402.2	664.413
1408.73	546.806
1415.27	441.834
1421.8	365.733
1428.34	283.186
1434.87	224.564
1441.4	172.623
1447.94	122.616
1454.47	94.2651
1461	72.8402
1467.54	24.4392
1474.07	15.2379
1480.61	6.94015
1487.14	18.5506
1493.67	6.58121
1500.21	25.4998
1506.74	55.619
1513.27	131.881
1519.81	187.55
1526.34	238.602
1532.87	309.942
1539.41	414.142
1545.94	509.374
1552.48	650.968
1559.01	830.959
1565.54	960.598
1572.08	1155.05
1578.61	1437
1585.14	1652.05
1591.68	1917.66
1598.21	2110.91
1604.75	2150.85
1611.28	2072.17
1617.81	1881.21
1624.35	1606.02
1630.88	1249.86
1637.41	957.166
1643.95	731.172
1650.48	560.541
1657.02	389.475
1663.55	247.753
1670.08	142.358
1676.62	85.1344
1683.15	50.4632
1689.68	9.86971
1696.22	-6.30981
1702.75	-3.53987
1709.28	9.16529
1715.82	14.2725
1722.35	18.9921
1728.89	7.79398
1735.42	5.88119
1741.95	2.44881
1748.49	8.99512
1755.02	5.15607
1761.55	5.2943
1768.09	6.92031
1774.62	18.3568
1781.16	1.6925
1787.69	2.37592
1794.22	9.48005
1800.76	0.993144
1807.29	-1.2029
1813.82	13.9247
1820.36	13.3268
1826.89	-1.27039
1833.43	-1.25807
1839.96	1.06659
1846.49	-4.71503
1853.03	4.7726
1859.56	9.95833
1866.09	-6.37311
1872.63	-8.14363
1879.16	-13.0226
1885.69	-10.2745
1892.23	2.63121
1898.76	7.42387
1905.3	0.901291
1911.83	1.13844
1918.36	-3.97054
1924.9	7.40158
1931.43	-2.61429
1937.96	1.08965
1944.5	1.00764
1951.03	-3.18042
1957.57	4.58118
1964.1	2.71411
1970.63	0.713623
1977.17	7.18121
1983.7	-0.698807
1990.23	2.75098
1996.77	-4.40662
2003.3	15.577
2009.83	-1.58096
2016.37	7.05443
2022.9	6.04356
2029.44	9.34586
2035.97	15.9857
2042.5	12.1553
2049.04	4.61491
2055.57	11.0403
2062.1	7.21902
2068.64	2.89569
2075.17	9.69247
2081.71	10.7467
2088.24	14.3997
2094.77	11.5929
2100	10.3503