File: Example Data/Raman/CNT - TIM/Raytheon/Al foil/2010/01-04-10/Al - B23 - top_2.txt
200	535.278
208.495	533.766
216.99	528.237
225.484	514.11
233.979	516.084
242.474	531.769
250.969	521.434
259.464	523.075
267.958	510.873
276.453	509.982
284.948	499.294
293.443	500.069
301.937	495.688
310.432	483.343
318.927	470.943
327.422	488.16
335.917	457.907
344.411	472.165
352.906	456.303
361.401	466.833
369.896	465.975
378.39	456.792
386.885	441.341
395.38	442.838
403.875	440.146
412.37	448.134
420.864	439.096
429.359	461.371
437.854	438.052
446.349	432.017
454.844	419.281
463.338	420.122
471.833	404.155
480.328	404.491
488.823	379.024
497.317	371.4
505.812	370.103
514.307	362.895
522.802	376.588
531.297	362.128
539.791	364.814
548.286	364.179
556.781	370.88
565.276	372.15
573.771	379.431
582.265	366.991
590.76	395.056
599.255	389.839
607.75	400.624
616.244	376.135
624.739	418.653
633.234	400.693
641.729	409.546
650.224	407.334
658.718	425.531
667.213	406.624
675.708	418.703
684.203	415.106
692.697	422.271
701.192	426.526
709.687	441.774
718.182	437.069
726.677	446.065
735.171	453.084
743.666	449.296
752.161	469.289
760.656	472.89
769.151	484.618
777.645	500.772
786.14	497.72
794.635	503.824
803.13	500.796
811.624	517.197
820.119	527.716
828.614	531.277
837.109	526.126
845.604	559.05
854.098	538.76
862.593	547.107
871.088	523.902
879.583	517.03
888.078	511.915
896.572	498.467
905.067	490.441
913.562	507.232
922.057	489.054
930.551	497.771
939.046	484.835
947.541	497.107
956.036	504.13
964.531	511.589
973.025	517.426
981.52	528.228
990.015	531.999
998.51	551.733
1007	593.12
1015.5	601.388
1023.99	635.415
1032.49	665.494
1040.98	695.527
1049.48	714.47
1057.97	730.652
1066.47	778.235
1074.96	791.807
1083.46	809.456
1091.95	865.456
1100.45	925.355
1108.94	926.494
1117.44	987.062
1125.93	1017.54
1134.43	1089.54
1142.92	1153.25
1151.42	1214.03
1159.91	1285.7
1168.41	1335.56
1176.9	1407.15
1185.39	1389.84
1193.89	1462.84
1202.38	1530.19
1210.88	1568
1219.37	1628.78
1227.87	1707.33
1236.36	1778.78
1244.86	1850.95
1253.35	2000.62
1261.85	2147.81
1270.34	2313.09
1278.84	2501.62
1287.33	2733.13
1295.83	3009.23
1304.32	3298.73
1312.82	3602.46
1321.31	3924.96
1329.81	4321.81
1338.3	4634.08
1346.8	4767.02
1355.29	4707.6
1363.79	4458.16
1372.28	4270.25
1380.77	3892.44
1389.27	3640.44
1397.76	3371.64
1406.26	3091.5
1414.75	2935.06
1423.25	2750.62
1431.74	2644.31
1440.24	2559.99
1448.73	2500.88
1457.23	2445.71
1465.72	2383.08
1474.22	2404.59
1482.71	2388.45
1491.21	2357.98
1499.7	2373.3
1508.2	2367.08
1516.69	2417.3
1525.19	2414.81
1533.68	2494.48
1542.18	2594.01
1550.67	2713.47
1559.17	2994.09
1567.66	3246.77
1576.16	3564.81
1584.65	3922.51
1593.14	4209.43
1601.64	4490.08
1610.13	4353.63
1618.63	3938.52
1627.12	3291.01
1635.62	2642.61
1644.11	2141.64
1652.61	1736.48
1661.1	1401.3
1669.6	1138.79
1678.09	911.035
1686.59	774.535
1695.08	653.3
1703.58	590.769
1712.07	547.041
1720.57	506.672
1729.06	469.368
1737.56	440.75
1746.05	411.216
1754.55	414.498
1763.04	391.249
1771.54	395.757
1780.03	381.224
1788.52	373.727
1797.02	368.279
1805.51	371.916
1814.01	374.076
1822.5	361.496
1831	356.54
1839.49	357.117
1847.99	345.849
1856.48	333.898
1864.98	358.942
1873.47	353.167
1881.97	355.447
1890.46	352.629
1898.96	364.245
1907.45	343.972
1915.95	361.922
1924.44	345.885
1932.94	350.5
1941.43	360.989
1949.93	354.467
1958.42	349.965
1966.92	345.03
1975.41	362.912
1983.9	356.846
1992.4	356.257
2000.89	358.564
2009.39	345.687
2017.88	357.274
2026.38	347.976
2034.87	345.836
2043.37	347.543
2051.86	358.324
2060.36	352.873
2068.85	361.322
2077.35	352.258
2085.84	357.569
2094.34	368.021
2100	367.569