File: Example Data/Raman/CNT - TIM/Raytheon/Al foil/2010/01-04-10/Al - B23 -bottom.txt
200	113.551
206.534	120.37
213.067	134.583
219.601	119.419
226.135	132.549
232.669	116.947
239.202	128.506
245.736	124.141
252.27	130.347
258.803	126.743
265.337	121.525
271.871	125.987
278.404	111.485
284.938	114.84
291.472	110.235
298.005	109.583
304.539	103.631
311.073	94.0719
317.607	95.0208
324.14	90.7216
330.674	85.4314
337.208	81.5144
343.741	85.7624
350.275	94.9994
356.809	76.4023
363.342	75.9075
369.876	80.2037
376.41	80.8241
382.944	71.3516
389.477	63.3005
396.011	69.6433
402.545	67.555
409.078	61.8673
415.612	55.0637
422.146	60.0733
428.68	60.4274
435.213	50.5633
441.747	56.3351
448.281	55.6602
454.814	40.8918
461.348	47.6031
467.882	39.9181
474.415	32.6294
480.949	29.3279
487.483	19.2177
494.017	10.8847
500.55	20.0413
507.084	4.58392
513.618	10.024
520.151	11.2633
526.685	7.67394
533.219	5.86173
539.752	9.98106
546.286	-1.75274
552.82	-0.184736
559.354	4.30667
565.887	0.113694
572.421	8.72046
578.955	4.27608
585.488	5.58618
592.022	-1.88914
598.556	6.17538
605.089	-5.99963
611.623	7.4332
618.157	14.0517
624.69	13.799
631.224	10.4175
637.758	6.5894
644.292	4.53427
650.825	-0.957735
657.359	10.3171
663.893	11.0861
670.426	15.3866
676.96	8.92607
683.494	2.49565
690.028	3.46623
696.561	9.93521
703.095	9.9541
709.629	2.56512
716.162	5.94738
722.696	12.7753
729.23	-5.1257
735.763	11.4126
742.297	3.00909
748.831	9.72883
755.365	20.876
761.898	16.3805
768.432	11.0761
774.966	12.5054
781.499	26.9383
788.033	18.5359
794.567	19.7316
801.1	28.2956
807.634	40.7179
814.168	30.6634
820.702	38.0371
827.235	35.9631
833.769	22.3502
840.303	40.5289
846.836	28.6495
853.37	39.3487
859.904	35.7239
866.437	27.1836
872.971	17.7597
879.505	20.7901
886.039	14.7082
892.572	17.2148
899.106	2.60282
905.64	0.349751
912.173	9.73101
918.707	1.74549
925.241	-23.4607
931.774	-6.81446
938.308	-1.8704
944.842	-11.3605
951.375	-4.93239
957.909	-10.6269
964.443	-8.44594
970.977	1.91506
977.51	-7.74716
984.044	-5.31098
990.578	-4.8767
997.111	7.52457
1003.65	12.4279
1010.18	6.00426
1016.71	8.46013
1023.25	-2.28822
1029.78	2.68617
1036.31	12.8984
1042.85	3.40974
1049.38	10.0341
1055.91	-2.72216
1062.45	15.7944
1068.98	-0.880714
1075.52	12.9161
1082.05	7.62199
1088.58	3.48919
1095.12	0.462802
1101.65	17.6501
1108.18	11.6594
1114.72	36.4767
1121.25	16.9257
1127.79	47.464
1134.32	59.9689
1140.85	70.7569
1147.39	91.7493
1153.92	119.571
1160.45	118.072
1166.99	124.408
1173.52	155.728
1180.06	154.094
1186.59	154.429
1193.12	142.448
1199.66	143.279
1206.19	162.938
1212.72	162.48
1219.26	188.08
1225.79	200.334
1232.32	214.229
1238.86	243.954
1245.39	269.471
1251.93	294.206
1258.46	346.376
1264.99	381.796
1271.53	431.63
1278.06	490.538
1284.59	588.8
1291.13	672.385
1297.66	746.991
1304.2	833.602
1310.73	949.215
1317.26	1068.43
1323.8	1189.51
1330.33	1279.23
1336.86	1344.46
1343.4	1366.62
1349.93	1344.17
1356.46	1331.59
1363	1228.99
1369.53	1120.4
1376.07	1019.9
1382.6	895.439
1389.13	762.24
1395.67	649.156
1402.2	545.567
1408.73	465.137
1415.27	371.58
1421.8	318.026
1428.34	254.5
1434.87	204.783
1441.4	149.459
1447.94	116.067
1454.47	96.7392
1461	68.115
1467.54	45.7338
1474.07	9.74865
1480.61	-0.156308
1487.14	20.8701
1493.67	3.90466
1500.21	-2.1001
1506.74	7.94376
1513.27	82.5538
1519.81	105.89
1526.34	159.673
1532.87	234.138
1539.41	323.342
1545.94	369.143
1552.48	494.161
1559.01	619.089
1565.54	748.864
1572.08	919.254
1578.61	1116.28
1585.14	1344.27
1591.68	1561.56
1598.21	1702.26
1604.75	1803.25
1611.28	1775.57
1617.81	1553
1624.35	1333.3
1630.88	1009.15
1637.41	760.509
1643.95	611.799
1650.48	445.34
1657.02	326.575
1663.55	227.901
1670.08	163.365
1676.62	98.9449
1683.15	46.0194
1689.68	17.556
1696.22	18.6654
1702.75	3.52277
1709.28	30.4338
1715.82	26.1821
1722.35	11.9899
1728.89	10.1928
1735.42	2.80607
1741.95	-10.3586
1748.49	-3.9713
1755.02	2.44793
1761.55	-8.69019
1768.09	-5.16241
1774.62	-9.16462
1781.16	-7.90901
1787.69	-2.76893
1794.22	3.34012
1800.76	-8.51111
1807.29	-4.39816
1813.82	-5.01488
1820.36	-6.55016
1826.89	1.77461
1833.43	-4.36214
1839.96	1.2197
1846.49	-13.7206
1853.03	-2.26869
1859.56	-1.54474
1866.09	-9.49043
1872.63	-24.0724
1879.16	-7.05783
1885.69	-3.30945
1892.23	-10.0518
1898.76	-8.79332
1905.3	-3.25193
1911.83	-3.51813
1918.36	-9.07503
1924.9	-17.4339
1931.43	-10.8208
1937.96	-2.22995
1944.5	-21.4105
1951.03	-4.1194
1957.57	-13.3046
1964.1	-16.8211
1970.63	-11.9028
1977.17	-6.13815
1983.7	-10.8497
1990.23	-20.5356
1996.77	-13.0558
2003.3	-9.58976
2009.83	-5.69233
2016.37	-3.78009
2022.9	-15.45
2029.44	-9.71885
2035.97	-5.18483
2042.5	1.00157
2049.04	-1.41758
2055.57	-12.4182
2062.1	4.33593
2068.64	-7.63954
2075.17	-9.00887
2081.71	-2.52994
2088.24	-7.8076
2094.77	-10.9995
2100	-4.46081