File: Example Data/Raman/CNT - TIM/Raytheon/Al foil/2010/06-08-10/Ola - B9 - bottom_2.txt
300	243.737
307.442	251.484
314.883	242.124
322.325	245.664
329.766	253.592
337.208	243.2
344.649	238.924
352.091	229.482
359.532	229.42
366.974	221.542
374.415	225.685
381.857	212.136
389.298	221.656
396.74	219.752
404.181	211.784
411.623	215.79
419.064	220.383
426.506	211.298
433.948	211.484
441.389	207.567
448.831	209.682
456.272	210.35
463.714	205.336
471.155	201.843
478.597	206.227
486.038	194.283
493.48	188.059
500.921	186.564
508.363	164.442
515.804	182.798
523.246	179.101
530.687	177.643
538.129	169.347
545.57	174.568
553.012	176.38
560.454	185.235
567.895	191.79
575.337	186.236
582.778	194.43
590.22	182.368
597.661	190.366
605.103	189.938
612.544	204.248
619.986	202.601
627.427	195.002
634.869	213.315
642.31	201.659
649.752	197.752
657.193	210.939
664.635	206.087
672.077	206.195
679.518	208.395
686.96	206.648
694.401	220.212
701.843	220.931
709.284	225.294
716.726	231.472
724.167	244.684
731.609	239.324
739.05	240.138
746.492	241.362
753.933	256.925
761.375	302.631
768.816	258.356
776.258	262.202
783.7	269.578
791.141	289.782
798.583	272.876
806.024	277.249
813.466	283.319
820.907	301.342
828.349	299.573
835.79	297.533
843.232	305.992
850.673	314.28
858.115	318.578
865.556	292.314
872.998	274.679
880.439	288.031
887.881	266.273
895.322	255.802
902.764	239.861
910.206	235.936
917.647	224.482
925.089	222.283
932.53	222.756
939.972	229
947.413	221.371
954.855	241.276
962.296	223.065
969.738	227.654
977.179	221.001
984.621	233.378
992.062	236.871
999.504	244.331
1006.95	256.591
1014.39	276.948
1021.83	277.864
1029.27	294.418
1036.71	303.517
1044.15	314.403
1051.59	318.63
1059.04	325.695
1066.48	340.51
1073.92	338.517
1081.36	351.819
1088.8	357.812
1096.24	360.421
1103.69	376.408
1111.13	393.335
1118.57	410.472
1126.01	408.752
1133.45	432.506
1140.89	455.369
1148.33	511.984
1155.78	531.264
1163.22	556.593
1170.66	566.09
1178.1	558.761
1185.54	592.196
1192.98	593.38
1200.43	598.715
1207.87	633.678
1215.31	655.399
1222.75	696.213
1230.19	717.954
1237.63	726.085
1245.07	784.984
1252.52	792.285
1259.96	841.502
1267.4	913.496
1274.84	1000.4
1282.28	1048.81
1289.72	1178.96
1297.17	1290.62
1304.61	1416.3
1312.05	1554.34
1319.49	1674.84
1326.93	1847.47
1334.37	1956.13
1341.81	2048.04
1349.26	2064.52
1356.7	1962.66
1364.14	1896.48
1371.58	1744.67
1379.02	1590.48
1386.46	1499.46
1393.91	1372.6
1401.35	1257.99
1408.79	1160.45
1416.23	1116.46
1423.67	1033.77
1431.11	996.31
1438.55	986.779
1446	953.27
1453.44	928.207
1460.88	930.595
1468.32	913.313
1475.76	884.188
1483.2	900.617
1490.64	891.121
1498.09	899.813
1505.53	878.956
1512.97	913.152
1520.41	934.534
1527.85	954.603
1535.29	1005.38
1542.74	1031.7
1550.18	1118.57
1557.62	1228.17
1565.06	1337.59
1572.5	1472.35
1579.94	1610.84
1587.38	1843.5
1594.83	1952.85
1602.27	2013.37
1609.71	1965.09
1617.15	1755.88
1624.59	1488.87
1632.03	1180.75
1639.48	936.346
1646.92	776.467
1654.36	599.784
1661.8	491.647
1669.24	425.858
1676.68	337.197
1684.12	278.384
1691.57	243.234
1699.01	211.108
1706.45	209.235
1713.89	199.662
1721.33	170.898
1728.77	172.059
1736.22	154.398
1743.66	146.419
1751.1	140.892
1758.54	138.276
1765.98	138.882
1773.42	132.664
1780.86	137.636
1788.31	123.914
1795.75	119.376
1803.19	123.288
1810.63	120.865
1818.07	124.44
1825.51	123.787
1832.96	112.956
1840.4	112.244
1847.84	106.282
1855.28	114.244
1862.72	128.923
1870.16	118.453
1877.6	127.175
1885.05	130.201
1892.49	118.006
1899.93	124.027
1907.37	117.338
1914.81	116.126
1922.25	118.992
1929.7	119.729
1937.14	113.098
1944.58	108.567
1952.02	117.399
1959.46	116.899
1966.9	112.174
1974.34	116.728
1981.79	125.344
1989.23	118.857
1996.67	113.195
2004.11	127.237
2011.55	119.814
2018.99	119.785
2026.44	124.318
2033.88	125.566
2041.32	125.961
2048.76	118.544
2056.2	124.302
2063.64	127.492
2071.08	110.085
2078.53	113.972
2085.97	119.857
2093.41	122.011
2100.85	115.474
2108.29	112.439
2115.73	125.445
2123.18	119.652
2130.62	116
2138.06	118.33
2145.5	126.7
2152.94	118.17
2160.38	126.875
2167.82	122.218
2175.27	131.849
2182.71	130.232
2190.15	127.434
2197.59	113.337
2205.03	116.86
2212.47	118.074
2219.92	135.597
2227.36	124.808
2234.8	130.591
2242.24	129.96
2249.68	132.797
2257.12	133.921
2264.56	136.687
2272.01	138.078
2279.45	139.353
2286.89	145.333
2294.33	137.605
2301.77	133.119
2309.21	139.581
2316.65	145.39
2324.1	136.567
2331.54	225.983
2338.98	148.474
2346.42	151.353
2353.86	150.316
2361.3	158.485
2368.75	164.313
2376.19	175.827
2383.63	176.079
2391.07	176.425
2398.51	175.192
2400	187.291