File: Example Data/Raman/CNT - TIM/Raytheon/Al foil/2010/06-08-10/Ola - B7 - top_2.txt
300	384.826
307.442	413.126
314.883	402.209
322.325	395.257
329.766	383.731
337.208	393.668
344.649	376.2
352.091	389.803
359.532	372.783
366.974	389.791
374.415	371.93
381.857	361.306
389.298	343.387
396.74	359.283
404.181	364.548
411.623	353.842
419.064	342.278
426.506	351.595
433.948	342.993
441.389	339.569
448.831	333.312
456.272	324.8
463.714	315.187
471.155	327.229
478.597	310.254
486.038	309.825
493.48	295.208
500.921	293.652
508.363	294.856
515.804	297.888
523.246	294.881
530.687	280.37
538.129	287.595
545.57	295.325
553.012	303.176
560.454	294.535
567.895	292.089
575.337	306.471
582.778	295.04
590.22	307.104
597.661	309.702
605.103	308.197
612.544	294.321
619.986	308.753
627.427	306.338
634.869	317.447
642.31	310.106
649.752	319.974
657.193	339.818
664.635	326.259
672.077	331.758
679.518	316.208
686.96	312.707
694.401	337.398
701.843	329.683
709.284	341.863
716.726	324.165
724.167	354.711
731.609	354.466
739.05	359.961
746.492	349.56
753.933	381.65
761.375	372.86
768.816	371.506
776.258	357.116
783.7	388.129
791.141	383.938
798.583	380.457
806.024	379.746
813.466	405.486
820.907	402.717
828.349	405.154
835.79	400.523
843.232	421.304
850.673	411.796
858.115	424.324
865.556	431.828
872.998	392.789
880.439	377.898
887.881	378.182
895.322	364.205
902.764	343.726
910.206	366.387
917.647	344.821
925.089	345.303
932.53	355.449
939.972	360.811
947.413	340.764
954.855	345.041
962.296	355.025
969.738	345.741
977.179	351.465
984.621	360.292
992.062	380.406
999.504	392.663
1006.95	393.659
1014.39	415.249
1021.83	425.887
1029.27	425.742
1036.71	446.707
1044.15	464.361
1051.59	504.124
1059.04	491.418
1066.48	494.083
1073.92	489.591
1081.36	519.622
1088.8	521.629
1096.24	537.565
1103.69	542.718
1111.13	545.473
1118.57	594.435
1126.01	587.661
1133.45	627.473
1140.89	637.103
1148.33	670.911
1155.78	675.674
1163.22	690.987
1170.66	712.73
1178.1	736.52
1185.54	724.051
1192.98	756.064
1200.43	792.558
1207.87	803.638
1215.31	842.706
1222.75	844.177
1230.19	891.729
1237.63	945.083
1245.07	995.237
1252.52	1041.83
1259.96	1091.52
1267.4	1163.72
1274.84	1211.36
1282.28	1310.53
1289.72	1425.86
1297.17	1525.61
1304.61	1689.49
1312.05	1806.22
1319.49	1981.35
1326.93	2101.29
1334.37	2218.67
1341.81	2249.14
1349.26	2274.2
1356.7	2193.37
1364.14	2085.54
1371.58	1898.04
1379.02	1803.48
1386.46	1684.27
1393.91	1565.41
1401.35	1473.18
1408.79	1401.77
1416.23	1383.4
1423.67	1287.91
1431.11	1242.88
1438.55	1253.3
1446	1227.27
1453.44	1222.55
1460.88	1189.86
1468.32	1187.2
1475.76	1180.91
1483.2	1178.57
1490.64	1181.48
1498.09	1199.51
1505.53	1195.02
1512.97	1216.15
1520.41	1246.92
1527.85	1238.07
1535.29	1308.59
1542.74	1374.41
1550.18	1486.37
1557.62	1611.83
1565.06	1738.08
1572.5	1893.59
1579.94	2026.14
1587.38	2105.9
1594.83	2136.94
1602.27	2062.74
1609.71	1942.4
1617.15	1730.56
1624.59	1477.79
1632.03	1242.32
1639.48	1019.31
1646.92	852.668
1654.36	710.798
1661.8	594.932
1669.24	510.505
1676.68	443.159
1684.12	392.231
1691.57	352.176
1699.01	324.663
1706.45	302.708
1713.89	282.618
1721.33	281.087
1728.77	273.094
1736.22	248.878
1743.66	245.807
1751.1	237.89
1758.54	233.64
1765.98	236.473
1773.42	217.406
1780.86	219.152
1788.31	219.1
1795.75	222.152
1803.19	214.518
1810.63	213.515
1818.07	209.66
1825.51	214.717
1832.96	221.385
1840.4	205.076
1847.84	211.355
1855.28	209.685
1862.72	208.615
1870.16	194.881
1877.6	193.451
1885.05	197.038
1892.49	198.997
1899.93	194.463
1907.37	200.98
1914.81	207.765
1922.25	190.027
1929.7	202.222
1937.14	199.343
1944.58	192.617
1952.02	184.541
1959.46	197.819
1966.9	209.523
1974.34	194.825
1981.79	188.261
1989.23	206.159
1996.67	189.823
2004.11	196.266
2011.55	194.411
2018.99	203.87
2026.44	205.197
2033.88	204.181
2041.32	198.458
2048.76	204.837
2056.2	201.667
2063.64	197.526
2071.08	205.519
2078.53	204.784
2085.97	190.96
2093.41	195.947
2100.85	197.967
2108.29	212.811
2115.73	195.284
2123.18	201.713
2130.62	201.191
2138.06	195.729
2145.5	198.029
2152.94	207.803
2160.38	200.941
2167.82	204.787
2175.27	206.206
2182.71	211.33
2190.15	200.055
2197.59	199.019
2205.03	204.172
2212.47	205.115
2219.92	213.668
2227.36	208.095
2234.8	214.728
2242.24	205.759
2249.68	211.378
2257.12	199.778
2264.56	208.43
2272.01	210.206
2279.45	228.079
2286.89	228.658
2294.33	221.352
2301.77	218.917
2309.21	212.532
2316.65	230.409
2324.1	234.63
2331.54	316.907
2338.98	229.828
2346.42	229.199
2353.86	232.396
2361.3	235.076
2368.75	235.118
2376.19	247.096
2383.63	255.06
2391.07	256.341
2398.51	256.142
2400	265.517