File: Example Data/Raman/CNT - TIM/Raytheon/Al foil/2010/06-08-10/Ola - B8 - bottom.txt
300	341.51
307.442	340.815
314.883	357.53
322.325	331.667
329.766	337.379
337.208	351.16
344.649	345.619
352.091	333.691
359.532	334.329
366.974	325.057
374.415	325.344
381.857	325.907
389.298	308.5
396.74	322.433
404.181	325.895
411.623	314.817
419.064	321.045
426.506	309.885
433.948	319.949
441.389	314.497
448.831	293.709
456.272	302.493
463.714	297.467
471.155	283.419
478.597	278.435
486.038	282.346
493.48	262.673
500.921	273.328
508.363	244.056
515.804	250.279
523.246	268.662
530.687	256.355
538.129	253.308
545.57	256.359
553.012	258.926
560.454	258.091
567.895	264.08
575.337	277.43
582.778	270.706
590.22	254.812
597.661	274.832
605.103	269.974
612.544	261.449
619.986	271.629
627.427	279.026
634.869	288.408
642.31	300.924
649.752	292.306
657.193	303.363
664.635	302.01
672.077	308.307
679.518	295.791
686.96	303.675
694.401	305.388
701.843	310.134
709.284	328.006
716.726	323.434
724.167	318.874
731.609	329.4
739.05	335.916
746.492	349.602
753.933	335.584
761.375	337.716
768.816	354.695
776.258	362.721
783.7	354.075
791.141	350.6
798.583	400.114
806.024	366.628
813.466	367.671
820.907	378.874
828.349	385.218
835.79	387.158
843.232	382.51
850.673	407.832
858.115	405.251
865.556	380.669
872.998	368.952
880.439	373.793
887.881	352.197
895.322	334.475
902.764	337.219
910.206	327.361
917.647	339.179
925.089	323.784
932.53	318.972
939.972	321.151
947.413	335.228
954.855	350.64
962.296	339.892
969.738	348.863
977.179	335.394
984.621	337.804
992.062	352.752
999.504	364.668
1006.95	371.345
1014.39	378.239
1021.83	413.499
1029.27	433.916
1036.71	453.254
1044.15	445.301
1051.59	491.231
1059.04	472.947
1066.48	482.779
1073.92	509.035
1081.36	514.73
1088.8	542.364
1096.24	557.76
1103.69	560.312
1111.13	611.317
1118.57	612.22
1126.01	633.526
1133.45	657.008
1140.89	692.382
1148.33	752.047
1155.78	761.197
1163.22	831.718
1170.66	829.681
1178.1	836.266
1185.54	880.864
1192.98	885.088
1200.43	924.41
1207.87	962.894
1215.31	994.738
1222.75	1050.11
1230.19	1105
1237.63	1114.75
1245.07	1207.71
1252.52	1284.55
1259.96	1350.97
1267.4	1469.79
1274.84	1578.92
1282.28	1686.11
1289.72	1778.81
1297.17	1908.96
1304.61	2074.68
1312.05	2215.39
1319.49	2375.31
1326.93	2544.91
1334.37	2686.06
1341.81	2726.06
1349.26	2716.04
1356.7	2635.04
1364.14	2560.11
1371.58	2414.89
1379.02	2276.66
1386.46	2149.59
1393.91	1997.58
1401.35	1899.6
1408.79	1749.01
1416.23	1683.21
1423.67	1633.33
1431.11	1586.76
1438.55	1545.4
1446	1538.68
1453.44	1486.41
1460.88	1461.79
1468.32	1472.83
1475.76	1439.33
1483.2	1450.25
1490.64	1407.72
1498.09	1478.43
1505.53	1500.64
1512.97	1480.15
1520.41	1506.64
1527.85	1548.02
1535.29	1603.74
1542.74	1658.5
1550.18	1759.84
1557.62	1915.45
1565.06	2054.19
1572.5	2257.15
1579.94	2436.51
1587.38	2675.27
1594.83	2768.02
1602.27	2769.45
1609.71	2613.43
1617.15	2403.96
1624.59	2058.18
1632.03	1671.81
1639.48	1381.96
1646.92	1135.92
1654.36	941.958
1661.8	795.052
1669.24	660.101
1676.68	529.22
1684.12	473.92
1691.57	392.916
1699.01	347.308
1706.45	339.063
1713.89	302.342
1721.33	296.745
1728.77	274.427
1736.22	261.345
1743.66	251.684
1751.1	248.478
1758.54	252.501
1765.98	238.009
1773.42	227.572
1780.86	224.107
1788.31	228.419
1795.75	213.356
1803.19	211.742
1810.63	206.488
1818.07	198.198
1825.51	227.225
1832.96	213.659
1840.4	207.142
1847.84	216.007
1855.28	201.861
1862.72	200.487
1870.16	204.905
1877.6	202.253
1885.05	208.635
1892.49	192.75
1899.93	200.973
1907.37	204.73
1914.81	199.211
1922.25	197.445
1929.7	195.322
1937.14	203.983
1944.58	202.574
1952.02	209.007
1959.46	194.16
1966.9	193.022
1974.34	208
1981.79	199.505
1989.23	198.521
1996.67	201.937
2004.11	205.734
2011.55	217.147
2018.99	211.051
2026.44	210.681
2033.88	204.901
2041.32	209.516
2048.76	198.107
2056.2	199.302
2063.64	214.859
2071.08	204.124
2078.53	202.418
2085.97	200.657
2093.41	200.968
2100.85	197.443
2108.29	203.894
2115.73	208.587
2123.18	201.284
2130.62	197.796
2138.06	204.785
2145.5	209.333
2152.94	202.282
2160.38	202.282
2167.82	211.224
2175.27	221.309
2182.71	206.101
2190.15	207.215
2197.59	207.604
2205.03	210.699
2212.47	205.399
2219.92	213.492
2227.36	216.486
2234.8	222.736
2242.24	212.052
2249.68	211.082
2257.12	210.207
2264.56	229.032
2272.01	241.547
2279.45	232.774
2286.89	221.611
2294.33	234.977
2301.77	227.328
2309.21	225.995
2316.65	240.648
2324.1	235.982
2331.54	362.584
2338.98	237.31
2346.42	244.452
2353.86	244.49
2361.3	251.144
2368.75	252.001
2376.19	269.043
2383.63	274.423
2391.07	290.286
2398.51	266.284
2400	270.671