File: Example Data/Raman/CNT - TIM/Raytheon/Al foil/2010/06-08-10/Ola - B8 - top.txt
300	279
307.442	277.928
314.883	284.583
322.325	276.862
329.766	265.553
337.208	268.967
344.649	265.124
352.091	275.981
359.532	260.528
366.974	261.204
374.415	252.804
381.857	244.115
389.298	245.696
396.74	239.244
404.181	244.078
411.623	242.153
419.064	250.303
426.506	248.297
433.948	245.237
441.389	241.662
448.831	231.284
456.272	228.573
463.714	227.532
471.155	237.451
478.597	218.088
486.038	219.067
493.48	203.633
500.921	203.253
508.363	195.127
515.804	206.351
523.246	194.353
530.687	207.083
538.129	191.41
545.57	207.133
553.012	191.491
560.454	196.711
567.895	206.853
575.337	219.715
582.778	210.882
590.22	203.138
597.661	215.119
605.103	220.235
612.544	221.164
619.986	232.546
627.427	232.337
634.869	228.578
642.31	229.72
649.752	234.145
657.193	218.97
664.635	235.368
672.077	227.959
679.518	233.418
686.96	238.144
694.401	240.883
701.843	244.663
709.284	252.94
716.726	255.997
724.167	257.108
731.609	262.306
739.05	274.285
746.492	277.69
753.933	291.02
761.375	281.974
768.816	288.309
776.258	301.907
783.7	300.082
791.141	318.715
798.583	316.048
806.024	323.758
813.466	329.739
820.907	326.65
828.349	330.613
835.79	324.295
843.232	332.747
850.673	347.254
858.115	329.362
865.556	312.791
872.998	309.796
880.439	307.446
887.881	287.273
895.322	271.861
902.764	281.874
910.206	279.888
917.647	261.061
925.089	263.529
932.53	264.723
939.972	259.145
947.413	267.854
954.855	257.323
962.296	265.015
969.738	264.94
977.179	264.85
984.621	295.847
992.062	279.77
999.504	285.999
1006.95	303.24
1014.39	311.535
1021.83	335.11
1029.27	335.247
1036.71	357.025
1044.15	363.23
1051.59	369.597
1059.04	383.88
1066.48	384.539
1073.92	394.59
1081.36	403.946
1088.8	421.865
1096.24	427.307
1103.69	449.873
1111.13	464.1
1118.57	475.929
1126.01	487.432
1133.45	512.548
1140.89	522.091
1148.33	532.618
1155.78	570.793
1163.22	584.028
1170.66	594.327
1178.1	602.264
1185.54	620.986
1192.98	640.368
1200.43	665.649
1207.87	692.883
1215.31	693.239
1222.75	726.448
1230.19	739.742
1237.63	790.882
1245.07	813.48
1252.52	854.364
1259.96	908.461
1267.4	949.199
1274.84	1024.01
1282.28	1114.61
1289.72	1207.26
1297.17	1308.45
1304.61	1419.3
1312.05	1540.47
1319.49	1677.46
1326.93	1795.59
1334.37	1928.09
1341.81	2005.87
1349.26	1977.02
1356.7	1977.62
1364.14	1878.87
1371.58	1758.34
1379.02	1669.84
1386.46	1522.35
1393.91	1461.96
1401.35	1326.8
1408.79	1250.66
1416.23	1216.47
1423.67	1156.13
1431.11	1154.42
1438.55	1091.1
1446	1067.98
1453.44	1053.83
1460.88	1046.79
1468.32	1025.09
1475.76	1004.48
1483.2	1017.9
1490.64	1024.63
1498.09	1048.86
1505.53	1023.2
1512.97	1034.64
1520.41	1083.81
1527.85	1096.46
1535.29	1156.88
1542.74	1210.23
1550.18	1278.33
1557.62	1414.3
1565.06	1516.32
1572.5	1667.27
1579.94	1809
1587.38	1937.68
1594.83	2056.27
1602.27	1998.99
1609.71	1948.52
1617.15	1741.11
1624.59	1504.24
1632.03	1240.09
1639.48	1037.45
1646.92	854.554
1654.36	685.599
1661.8	559.401
1669.24	469.641
1676.68	384.662
1684.12	312.589
1691.57	273.076
1699.01	270.007
1706.45	261.489
1713.89	224.059
1721.33	205.045
1728.77	202.673
1736.22	194.353
1743.66	188.189
1751.1	184.315
1758.54	162.823
1765.98	171.172
1773.42	173.864
1780.86	179.246
1788.31	167.226
1795.75	159.373
1803.19	157.514
1810.63	146.406
1818.07	156.564
1825.51	155.475
1832.96	151.582
1840.4	146.449
1847.84	158.779
1855.28	145.44
1862.72	155.154
1870.16	152.189
1877.6	152.442
1885.05	151.61
1892.49	154.389
1899.93	141.929
1907.37	153.599
1914.81	141.477
1922.25	152.366
1929.7	150.704
1937.14	149.576
1944.58	152.737
1952.02	152.479
1959.46	147.081
1966.9	157.856
1974.34	154.193
1981.79	151.715
1989.23	161.487
1996.67	155.268
2004.11	148.469
2011.55	153.803
2018.99	157.331
2026.44	158.53
2033.88	161.563
2041.32	142.494
2048.76	147.81
2056.2	159.205
2063.64	149.35
2071.08	149.951
2078.53	153.925
2085.97	161.696
2093.41	155.075
2100.85	138.713
2108.29	159.151
2115.73	154.918
2123.18	157.266
2130.62	155.022
2138.06	155.928
2145.5	157.799
2152.94	154.34
2160.38	174.001
2167.82	154.997
2175.27	165.467
2182.71	155.572
2190.15	161.203
2197.59	163.33
2205.03	172.022
2212.47	159.727
2219.92	175.457
2227.36	160.784
2234.8	157.397
2242.24	171.58
2249.68	169.727
2257.12	165.619
2264.56	159.76
2272.01	170.738
2279.45	176.127
2286.89	182.744
2294.33	180.7
2301.77	168.76
2309.21	172.914
2316.65	178.183
2324.1	178.827
2331.54	264.808
2338.98	194.106
2346.42	191.689
2353.86	192.832
2361.3	202.024
2368.75	204.588
2376.19	200.88
2383.63	203.831
2391.07	218.344
2398.51	228.379
2400	227.719