File: Example Data/Raman/CNT - TIM/Raytheon/Al foil/2010/06-08-10/Ola - B7 - bottom.txt
300	350.914
307.442	360.538
314.883	341.234
322.325	347.114
329.766	354.586
337.208	350.166
344.649	330.228
352.091	335.994
359.532	327.567
366.974	331.39
374.415	320.984
381.857	317.59
389.298	325.444
396.74	321.304
404.181	313.202
411.623	314.188
419.064	301.51
426.506	316.667
433.948	301.364
441.389	311.106
448.831	316.854
456.272	288.07
463.714	298.24
471.155	287.118
478.597	280.453
486.038	280.364
493.48	270.811
500.921	266.324
508.363	261.411
515.804	269.822
523.246	248.003
530.687	258.523
538.129	255.597
545.57	258.757
553.012	256.945
560.454	270.614
567.895	268.931
575.337	263.096
582.778	273.318
590.22	273.667
597.661	282.965
605.103	268.015
612.544	281.787
619.986	272.71
627.427	334.905
634.869	279.301
642.31	296.992
649.752	280.07
657.193	281.576
664.635	294.579
672.077	288.523
679.518	291.106
686.96	300.283
694.401	286.96
701.843	302.451
709.284	304.101
716.726	319.667
724.167	303.991
731.609	321.562
739.05	334.515
746.492	328.268
753.933	344.202
761.375	341.487
768.816	351.912
776.258	350.876
783.7	361.374
791.141	367.68
798.583	371.943
806.024	378.31
813.466	386.243
820.907	387.747
828.349	397.644
835.79	385.165
843.232	399.072
850.673	402.379
858.115	406.961
865.556	382.067
872.998	364.511
880.439	365.129
887.881	351.364
895.322	348.055
902.764	339.578
910.206	331.978
917.647	308.174
925.089	320.631
932.53	329.086
939.972	290.44
947.413	337.131
954.855	325.671
962.296	330.02
969.738	321.332
977.179	324.611
984.621	342.396
992.062	362.896
999.504	379.329
1006.95	389.909
1014.39	397.193
1021.83	394.175
1029.27	431.757
1036.71	422.878
1044.15	448.826
1051.59	448.994
1059.04	460.151
1066.48	483.698
1073.92	489.684
1081.36	515.492
1088.8	512.603
1096.24	530.304
1103.69	535.895
1111.13	571.465
1118.57	576.697
1126.01	596.238
1133.45	607.023
1140.89	647.085
1148.33	677.187
1155.78	701.674
1163.22	724.336
1170.66	749.698
1178.1	734.44
1185.54	774.545
1192.98	789.953
1200.43	770.036
1207.87	837.731
1215.31	883.392
1222.75	901.427
1230.19	933.708
1237.63	967.553
1245.07	988.178
1252.52	1051.9
1259.96	1104.71
1267.4	1215.82
1274.84	1268.83
1282.28	1380.19
1289.72	1485.71
1297.17	1620.32
1304.61	1767.16
1312.05	1969.12
1319.49	2096.12
1326.93	2296.23
1334.37	2454.07
1341.81	2484.32
1349.26	2519.69
1356.7	2397.26
1364.14	2251.61
1371.58	2095.16
1379.02	1903.02
1386.46	1789.32
1393.91	1628.89
1401.35	1516.7
1408.79	1455.88
1416.23	1315.46
1423.67	1314.28
1431.11	1285.45
1438.55	1237.12
1446	1213.38
1453.44	1193.04
1460.88	1199.36
1468.32	1172.23
1475.76	1198.65
1483.2	1185.65
1490.64	1179.01
1498.09	1222.51
1505.53	1190.43
1512.97	1227.77
1520.41	1225.98
1527.85	1309.59
1535.29	1341.68
1542.74	1468.25
1550.18	1595.45
1557.62	1769.85
1565.06	1924.58
1572.5	2109.34
1579.94	2300.45
1587.38	2459.47
1594.83	2507.11
1602.27	2430.54
1609.71	2236.53
1617.15	1998.76
1624.59	1673.54
1632.03	1368.88
1639.48	1109.38
1646.92	900.703
1654.36	752.339
1661.8	608.469
1669.24	518.625
1676.68	441.309
1684.12	383.843
1691.57	363.782
1699.01	319.85
1706.45	293.059
1713.89	299.336
1721.33	271.655
1728.77	259.148
1736.22	241.729
1743.66	243.29
1751.1	228.274
1758.54	221.058
1765.98	223.246
1773.42	224.683
1780.86	217.869
1788.31	203.519
1795.75	199.014
1803.19	213.239
1810.63	208.035
1818.07	214.549
1825.51	204.142
1832.96	201.221
1840.4	212.368
1847.84	197.929
1855.28	204.331
1862.72	216.41
1870.16	187.879
1877.6	197.189
1885.05	200.132
1892.49	198.238
1899.93	194.901
1907.37	196.831
1914.81	190.214
1922.25	185.76
1929.7	193.975
1937.14	201.576
1944.58	190.716
1952.02	200.673
1959.46	205.236
1966.9	197.486
1974.34	196.377
1981.79	204.296
1989.23	192.593
1996.67	198.333
2004.11	198.258
2011.55	190.931
2018.99	194.179
2026.44	196.805
2033.88	203.952
2041.32	199.494
2048.76	195.898
2056.2	202.858
2063.64	198.994
2071.08	206.174
2078.53	193.042
2085.97	191.56
2093.41	194.312
2100.85	190.096
2108.29	194.685
2115.73	205.876
2123.18	196.496
2130.62	198.479
2138.06	194.994
2145.5	191.223
2152.94	193.493
2160.38	202.408
2167.82	203.934
2175.27	202.825
2182.71	207.058
2190.15	202.346
2197.59	211.663
2205.03	207.85
2212.47	212.934
2219.92	205.913
2227.36	205.265
2234.8	206.402
2242.24	201.449
2249.68	208.464
2257.12	204.318
2264.56	225.144
2272.01	217.099
2279.45	215.961
2286.89	223.457
2294.33	230.003
2301.77	220.37
2309.21	227.677
2316.65	227.173
2324.1	231.722
2331.54	334.1
2338.98	239.692
2346.42	231.743
2353.86	241.98
2361.3	243.25
2368.75	241.746
2376.19	256.152
2383.63	267.213
2391.07	264.375
2398.51	290.262
2400	275.535