File: Example Data/Raman/CNT - TIM/Raytheon/Cu foil/08-10-10/Cu foil_bottom.txt
300	18.4507
306.073	18.0912
312.147	22.4697
318.22	22.1687
324.294	16.5153
330.367	25.1913
336.44	30.9984
342.514	19.3163
348.587	26.6398
354.66	22.5833
360.734	18.0869
366.807	29.2773
372.881	14.9614
378.954	17.4255
385.027	19.7635
391.101	8.39529
397.174	23.9634
403.248	20.2908
409.321	28.3653
415.394	14.4681
421.468	20.0645
427.541	12.7362
433.615	20.417
439.688	18.7654
445.761	17.6122
451.835	23.2509
457.908	18.0961
463.981	21.7257
470.055	27.6401
476.128	20.3872
482.202	8.66566
488.275	5.81074
494.348	10.0139
500.422	9.65649
506.495	1.86087
512.569	8.89569
518.642	-7.34543
524.715	-0.180289
530.789	3.2033
536.862	1.91246
542.935	-1.42197
549.009	12.5609
555.082	1.02015
561.156	7.0639
567.229	10.5307
573.302	9.11473
579.376	6.01471
585.449	12.1175
591.523	10.8417
597.596	4.85773
603.669	9.93087
609.743	12.8441
615.816	7.42944
621.89	3.85515
627.963	9.15279
634.036	1.75159
640.11	13.7318
646.183	17.3069
652.256	17.1451
658.33	8.98327
664.403	13.8053
670.477	20.9836
676.55	19.9192
682.623	15.1915
688.697	14.2301
694.77	15.5205
700.844	15.7508
706.917	14.3822
712.99	15.7336
719.064	9.99935
725.137	23.7338
731.21	19.8485
737.284	27.1383
743.357	25.1473
749.431	22.3089
755.504	36.904
761.577	37.9245
767.651	36.2836
773.724	33.5647
779.798	36.8807
785.871	33.2362
791.944	34.3062
798.018	44.2578
804.091	46.2537
810.164	51.1779
816.238	45.2558
822.311	44.9569
828.385	61.6788
834.458	52.7829
840.531	42.5171
846.605	58.4009
852.678	45.621
858.752	60.5882
864.825	41.1035
870.898	47.3725
876.972	35.9643
883.045	31.4904
889.119	24.4575
895.192	23.3789
901.265	16.5514
907.339	21.5939
913.412	17.8806
919.485	10.8509
925.559	10.9096
931.632	7.03359
937.706	2.71365
943.779	3.93754
949.852	6.89989
955.926	-0.191417
961.999	0.887947
968.073	-8.37959
974.146	-2.58761
980.219	-9.51193
986.293	-5.96534
992.366	-3.22104
998.439	-0.866408
1004.51	-8.66978
1010.59	-6.90543
1016.66	-5.36834
1022.73	-2.34462
1028.81	-11.5738
1034.88	6.82756
1040.95	-5.59096
1047.03	-2.67868
1053.1	-8.26775
1059.17	-5.46196
1065.25	-2.13805
1071.32	-10.7063
1077.39	-4.33522
1083.47	-2.70084
1089.54	-2.54568
1095.61	-4.31835
1101.69	-0.838877
1107.76	4.89292
1113.83	9.15802
1119.91	6.16226
1125.98	5.06249
1132.05	13.9553
1138.13	18.7576
1144.2	31.275
1150.27	35.4858
1156.35	53.5979
1162.42	50.4294
1168.49	59.8103
1174.57	71.0348
1180.64	83.6565
1186.71	72.4333
1192.79	86.5571
1198.86	88.9829
1204.93	99.1085
1211.01	114.983
1217.08	108.556
1223.15	134.189
1229.23	145.892
1235.3	168.813
1241.375	177.992
1247.45	206.059
1253.52	212.463
1259.6	262.94
1265.67	303.786
1271.74	306.256
1277.82	391.257
1283.89	424.968
1289.96	492.871
1296.04	573.581
1302.11	644.009
1308.18	745.9
1314.26	854.652
1320.33	984.678
1326.4	1125.53
1332.48	1251.95
1338.55	1412.36
1344.62	1476.08
1350.7	1502.9
1356.77	1434.81
1362.84	1295.45
1368.92	1141.8
1374.99	952.373
1381.06	821.919
1387.14	666.129
1393.21	542.654
1399.28	461.924
1405.36	350.127
1411.43	286.038
1417.5	242.472
1423.58	177.384
1429.65	129.784
1435.72	101.601
1441.8	83.3797
1447.87	66.4402
1453.94	40.1233
1460.02	32.2999
1466.09	3.64179
1472.16	6.27819
1478.24	4.75885
1484.31	14.0861
1490.38	6.10003
1496.46	-0.914244
1502.53	20.0965
1508.6	43.7534
1514.68	64.7981
1520.75	102.144
1526.82	124.75
1532.9	162.455
1538.97	201.178
1545.04	276.85
1551.12	331.07
1557.19	500.872
1563.26	577.01
1569.34	746.369
1575.41	907.16
1581.48	1087.45
1587.56	1223.98
1593.63	1326.75
1599.7	1312.69
1605.78	1308.32
1611.85	1249.53
1617.92	1138.66
1624	956.887
1630.07	734.763
1636.15	540.066
1642.22	385.571
1648.29	290.216
1654.37	187.143
1660.44	124.85
1666.51	73.726
1672.59	44.982
1678.66	6.03235
1684.73	1.75552
1690.81	-2.04599
1696.88	-10.3979
1702.95	-12.8048
1709.03	-11.8941
1715.1	-7.11968
1721.17	-7.24551
1727.25	-7.69511
1733.32	-9.21982
1739.39	-6.49189
1745.47	-2.50882
1751.54	-0.0415949
1757.61	0.255738
1763.69	3.56845
1769.76	-2.04701
1775.83	-0.905623
1781.91	2.35115
1787.98	-0.0310921
1794.05	1.04775
1800.13	-7.11773
1806.2	-2.54723
1812.27	-1.29547
1818.35	2.59187
1824.42	4.26955
1830.49	0.191458
1836.57	3.69092
1842.64	4.82692
1848.71	-0.332811
1854.79	8.59294
1860.86	2.19391
1866.93	9.78779
1873.01	7.28759
1879.08	-2.07344
1885.15	2.15894
1891.23	6.61012
1897.3	-2.09106
1903.37	-5.1604
1909.45	0.484569
1915.52	-0.347546
1921.59	-7.25367
1927.67	-1.19449
1933.74	-0.415079
1939.81	0.623442
1945.89	-0.862504
1951.96	-1.50404
1958.03	-3.0449
1964.11	-6.42865
1970.18	-3.67019
1976.25	-4.73984
1982.33	-5.74868
1988.4	-5.74808
1994.47	-1.21129
2000.55	-13.6736
2006.62	0.0309946
2012.7	-0.880215
2018.77	-5.53545
2024.84	-1.1348
2030.92	-6.24335
2036.99	-6.28758
2043.06	-2.99103
2049.14	-9.89351
2055.21	-0.513604
2061.28	-8.18086
2067.36	-7.25097
2073.43	0.215669
2079.5	-9.88909
2085.58	-2.81386
2091.65	-5.40068
2097.72	-6.68681
2100	-2.49195