File: Example Data/Raman/CNT - TIM/Raytheon/Cu foil/08-10-10/Cu foil_top.txt
300	80.8615
306.073	78.4263
312.147	79.0793
318.22	69.9171
324.294	79.76
330.367	76.553
336.44	66.1737
342.514	66.9025
348.587	55.1563
354.66	68.6838
360.734	68.7128
366.807	59.4001
372.881	49.3325
378.954	47.7215
385.027	60.6577
391.101	53.0606
397.174	50.1735
403.248	50.6731
409.321	32.9272
415.394	45.8451
421.468	39.6529
427.541	35.2172
433.615	39.1487
439.688	31.3462
445.761	34.6796
451.835	41.9089
457.908	42.763
463.981	33.3611
470.055	29.1929
476.128	18.3277
482.202	23.8357
488.275	19.3843
494.348	12.24
500.422	10.1116
506.495	-2.67078
512.569	5.98304
518.642	3.65415
524.715	9.12613
530.789	3.21858
536.862	5.80905
542.935	1.94428
549.009	4.53102
555.082	4.73904
561.156	7.08233
567.229	5.21875
573.302	2.37463
579.376	7.25643
585.449	-0.544558
591.523	4.96818
597.596	-1.47057
603.669	10.7376
609.743	4.35472
615.816	6.97
621.89	10.4427
627.963	12.2025
634.036	17.8649
640.11	12.7287
646.183	13.7352
652.256	7.60541
658.33	17.1877
664.403	12.737
670.477	28.9924
676.55	11.2044
682.623	3.24057
688.697	7.43012
694.77	15.7786
700.844	13.0554
706.917	16.7857
712.99	22.8399
719.064	27.7582
725.137	23.4493
731.21	28.3779
737.284	39.35
743.357	22.261
749.431	30.7901
755.504	32.2806
761.577	31.9164
767.651	29.5191
773.724	34.2227
779.798	36.6646
785.871	42.0289
791.944	34.9986
798.018	41.5162
804.091	47.4512
810.164	44.8879
816.238	46.2871
822.311	55.321
828.385	42.4365
834.458	56.1995
840.531	62.8676
846.605	51.4973
852.678	56.8881
858.752	58.0757
864.825	49.0692
870.898	51.2515
876.972	29.9143
883.045	22.976
889.119	20.0184
895.192	18.7764
901.265	14.9819
907.339	13.5091
913.412	-1.9196
919.485	10.3816
925.559	7.60852
931.632	8.86291
937.706	2.70632
943.779	4.95157
949.852	8.26525
955.926	3.48241
961.999	0.569941
968.073	-8.75365
974.146	-15.6915
980.219	-25.0217
986.293	-12.1753
992.366	-22.1054
998.439	-25.6504
1004.51	-30.8215
1010.59	-27.4199
1016.66	-42.517
1022.73	-21.5788
1028.81	-22.5756
1034.88	-17.7632
1040.95	-15.0364
1047.03	-16.2927
1053.1	-19.7455
1059.17	-27.386
1065.25	-26.955
1071.32	-28.8099
1077.39	-29.2521
1083.47	-25.4907
1089.54	-25.271
1095.61	-24.2358
1101.69	-21.0946
1107.76	-12.2533
1113.83	-20.4235
1119.91	-5.1516
1125.98	-1.536
1132.05	1.64061
1138.13	1.08852
1144.2	21.2425
1150.27	18.8518
1156.35	32.2471
1162.42	43.0023
1168.49	48.9761
1174.57	33.2243
1180.64	31.9199
1186.71	41.3384
1192.79	37.6964
1198.86	59.0005
1204.93	59.4034
1211.01	77.1763
1217.08	87.6054
1223.15	90.236
1229.23	117.671
1235.3	129.704
1241.375	155.321
1247.45	171.829
1253.52	189.735
1259.6	222.692
1265.67	238.199
1271.74	316.498
1277.82	342.516
1283.89	381.561
1289.96	457.824
1296.04	507.898
1302.11	595.7
1308.18	685.752
1314.26	768.464
1320.33	876.472
1326.4	963.266
1332.48	1034.99
1338.55	1094.22
1344.62	1063.23
1350.7	1049.5
1356.77	971.435
1362.84	872.997
1368.92	782.263
1374.99	670.076
1381.06	561.543
1387.14	479.935
1393.21	380.126
1399.28	306.278
1405.36	272.511
1411.43	211.672
1417.5	172.425
1423.58	136.643
1429.65	111.746
1435.72	75.3573
1441.8	72.0471
1447.87	31.256
1453.94	13.1226
1460.02	30.8464
1466.09	19.0538
1472.16	9.65128
1478.24	13.1325
1484.31	41.6313
1490.38	45.7985
1496.46	56.278
1502.53	71.8802
1508.6	91.3088
1514.68	114.582
1520.75	145.945
1526.82	184.39
1532.9	206.147
1538.97	270.416
1545.04	360.745
1551.12	401.093
1557.19	512.13
1563.26	578.238
1569.34	724.593
1575.41	872.498
1581.48	1021.72
1587.56	1198.24
1593.63	1289.95
1599.7	1270.31
1605.78	1181.41
1611.85	1053.54
1617.92	892.189
1624	730.76
1630.07	571.368
1636.15	441.83
1642.22	325.001
1648.29	241.572
1654.37	167.444
1660.44	111.523
1666.51	78.0593
1672.59	54.1461
1678.66	21.1139
1684.73	21.9602
1690.81	14.5172
1696.88	2.0578
1702.95	4.22388
1709.03	-1.76164
1715.1	-3.96421
1721.17	5.05993
1727.25	8.60103
1733.32	5.36398
1739.39	9.81645
1745.47	-3.27893
1751.54	-1.07024
1757.61	-4.45774
1763.69	-6.31217
1769.76	-3.36465
1775.83	-5.16517
1781.91	-12.6356
1787.98	-0.347115
1794.05	6.58835
1800.13	0.230695
1806.2	-4.40985
1812.27	-8.22753
1818.35	-10.8758
1824.42	-12.5403
1830.49	-4.32694
1836.57	-2.64137
1842.64	-4.02028
1848.71	-4.32965
1854.79	-8.10077
1860.86	-5.07017
1866.93	0.837984
1873.01	-9.37069
1879.08	-8.52003
1885.15	-7.19163
1891.23	-6.02179
1897.3	7.24413
1903.37	-2.48525
1909.45	-3.7672
1915.52	-1.99004
1921.59	7.29089
1927.67	0.908691
1933.74	2.48012
1939.81	4.37187
1945.89	-4.80472
1951.96	-2.16222
1958.03	-5.39995
1964.11	-19.2269
1970.18	-4.1429
1976.25	-1.37863
1982.33	0.415421
1988.4	-7.48863
1994.47	-2.69862
2000.55	-4.24654
2006.62	-4.7027
2012.7	-4.58206
2018.77	-4.18074
2024.84	-8.21713
2030.92	-1.77341
2036.99	-9.20941
2043.06	-11.1488
2049.14	-5.09473
2055.21	-9.6205
2061.28	-4.6114
2067.36	-8.49055
2073.43	-11.0877
2079.5	-8.33298
2085.58	-4.01323
2091.65	-14.1191
2097.72	-5.9639
2100	0.466797