File: Example Data/Raman/Kara/05-21-10/CNT m2 3-6-2008/CNT m2_2.txt
50	13.6935
60.0413	15.1807
70.0827	122.089
80.124	267.23
90.1653	259.22
100.207	259.919
110.248	318.835
120.289	271.533
130.331	237.924
140.372	235.983
150.413	215.251
160.455	207.865
170.496	195.682
180.537	206.177
190.579	206.826
200.62	208.863
210.661	194.76
220.703	207.897
230.744	213.154
240.785	217.793
250.827	207.914
260.868	209.552
270.909	207.315
280.951	198.511
290.992	205.333
301.033	195.971
311.075	185.881
321.116	180.29
331.157	187.233
341.199	173.472
351.24	173.864
361.281	170.26
371.323	158.916
381.364	157.221
391.405	146.57
401.447	147.067
411.488	149.452
421.529	145.758
431.571	131.695
441.612	137.667
451.653	142.063
461.695	134.424
471.736	132.116
481.777	127.052
491.819	131.015
501.86	128.741
511.901	118.097
521.943	126.156
531.984	115.074
542.025	117.68
552.067	116.457
562.108	126.521
572.149	117.195
582.191	120.223
592.232	121.398
602.273	123.646
612.315	119.062
622.356	120.432
632.397	126.638
642.439	135.779
652.48	137.524
662.521	135.694
672.563	136.579
682.604	141.832
692.645	142.881
702.687	147.186
712.728	150.811
722.769	156.88
732.811	161.281
742.852	158.102
752.893	156.571
762.935	175.643
772.976	174.378
783.017	190.689
793.059	187.034
803.1	185.717
813.141	192.553
823.183	210.28
833.224	205.601
843.265	209.396
853.307	214.027
863.348	196.09
873.389	191.606
883.431	174.291
893.472	157.673
903.513	137.082
913.555	140.111
923.596	132.625
933.637	121.558
943.679	123.851
953.72	116.889
963.761	114.711
973.803	105.542
983.844	106.768
993.885	110.606
1003.93	115.698
1013.97	114.299
1024.01	117.717
1034.05	131.263
1044.09	129.479
1054.13	127.777
1064.17	119.254
1074.22	118.249
1084.26	118.667
1094.3	124.159
1104.34	111.513
1114.38	109.954
1124.42	108.352
1134.46	97.2466
1144.51	108.274
1154.55	102.116
1164.59	102.916
1174.63	101.925
1184.67	93.8346
1194.71	103.919
1204.75	102.477
1214.79	106.307
1224.84	111.88
1234.88	110.222
1244.92	124.284
1254.96	117.955
1265	138.851
1275.04	156.048
1285.08	178.295
1295.13	196.041
1305.17	257.78
1315.21	347.384
1325.25	493.8
1335.29	615.107
1345.33	618.414
1355.37	493.594
1365.41	358.217
1375.46	264.505
1385.5	212.287
1395.54	180.71
1405.58	159.989
1415.62	143.103
1425.66	137.317
1435.7	139.03
1445.75	132.66
1455.79	129.58
1465.83	142.217
1475.87	133.27
1485.91	138.606
1495.95	146.392
1505.99	148.457
1516.03	160.578
1526.08	183.089
1536.12	231.442
1546.16	311.174
1556.2	472.2
1566.24	628.932
1576.28	672.529
1586.32	530.691
1596.37	419.178
1606.41	388.573
1616.45	288.248
1626.49	205.77
1636.53	156.173
1646.57	107.985
1656.61	84.8293
1666.65	83.4182
1676.7	78.8289
1686.74	71.4468
1696.78	70.8806
1706.82	70.4725
1716.86	64.9758
1726.9	55.6436
1736.94	66.6955
1746.99	58.9797
1757.03	59.0179
1767.07	62.2454
1777.11	51.4377
1787.15	62.8257
1797.19	63.3002
1807.23	63.7931
1817.27	58.3892
1827.32	60.1276
1837.36	59.0675
1847.4	57.7466
1857.44	57.861
1867.48	65.9395
1877.52	60.6626
1887.56	57.8094
1897.61	56.1155
1907.65	56.3588
1917.69	61.1913
1927.73	56.232
1937.77	55.5544
1947.81	59.1152
1957.85	57.1429
1967.89	57.431
1977.94	58.2162
1987.98	63.0572
1998.02	58.5639
2008.06	50.5816
2018.1	54.0241
2028.14	60.4963
2038.18	55.678
2048.23	60.8832
2058.27	59.0642
2068.31	45.2901
2078.35	58.9848
2088.39	55.3918
2098.43	52.3268
2108.47	61.9442
2118.51	59.6036
2128.56	51.4768
2138.6	56.7132
2148.64	52.5628
2158.68	58.4847
2168.72	64.818
2178.76	55.1068
2188.8	63.7859
2198.85	59.7803
2208.89	58.9833
2218.93	56.8974
2228.97	59.3104
2239.01	62.9408
2249.05	64.4811
2259.09	59.0358
2269.13	60.8118
2279.18	61.1518
2289.22	61.4783
2299.26	67.0986
2309.3	71.8709
2319.34	59.2426
2329.38	88.7867
2339.42	56.8573
2349.47	62.3223
2359.51	62.7783
2369.55	68.064
2379.59	74.2552
2389.63	77.1317
2399.67	75.4111
2409.71	90.3106
2419.75	88.0067
2429.8	87.6196
2439.84	91.1082
2449.88	96.8386
2459.92	89.7803
2469.96	90.0154
2480	84.5168
2490.04	84.0472
2500.09	84.9768
2510.13	88.5291
2520.17	91.2185
2530.21	87.1965
2540.25	90.6827
2550.29	88.0109
2560.33	97.8715
2570.37	111.012
2580.42	121.839
2590.46	125.497
2600.5	150.079
2610.54	165.342
2620.58	200.024
2630.62	232.315
2640.66	281.261
2650.71	332.956
2660.75	384.042
2670.79	410.022
2680.83	402.519
2690.87	388.994
2700.91	334.309
2710.95	286.001
2720.99	236.172
2731.04	203.744
2741.08	170.877
2751.12	151.217
2761.16	132.471
2771.2	124.051
2781.24	118.308
2791.28	106.416
2801.32	104.934
2811.37	98.7933
2821.41	102.924
2831.45	95.6652
2841.49	99.2848
2851.53	103.934
2861.57	96.3953
2871.61	104.737
2881.66	103.249
2891.7	107.509
2901.74	118.322
2911.78	118.871
2921.82	127.304
2931.86	112.677
2941.9	110.538
2951.95	109.688
2961.99	96.8822
2972.03	97.6485
2982.07	98.9536
2992.11	92.8425
3000	81.528