File: Example Data/Raman/Kara/05-21-10/CNT m2 3-6-2008/CNT m2.txt
1000	123.125
1003.65	119.517
1007.3	119.69
1010.95	118.283
1014.6	120.221
1018.25	124.393
1021.9	119.484
1025.55	119.194
1029.2	124.438
1032.85	128.333
1036.5	136.758
1040.15	135.068
1043.8	131.487
1047.45	131.139
1051.09	126.2
1054.74	126.323
1058.39	122.056
1062.04	123.717
1065.69	118.4
1069.34	120.031
1072.99	119.507
1076.64	117.114
1080.29	120.933
1083.94	118.956
1087.59	116.165
1091.24	117.002
1094.89	122.744
1098.54	120.096
1102.19	112.775
1105.84	117.1
1109.49	116.593
1113.14	113.521
1116.79	115.833
1120.44	117.732
1124.09	109.219
1127.74	101.146
1131.39	106.175
1135.04	100.726
1138.69	108.088
1142.34	103.371
1145.99	106.351
1149.64	102.244
1153.28	94.9508
1156.93	100.885
1160.58	101.922
1164.23	97.6137
1167.88	97.6312
1171.53	105.596
1175.18	96.133
1178.83	98.0126
1182.48	103.045
1186.13	95.1471
1189.78	101.535
1193.43	107.704
1197.08	100.915
1200.73	102.497
1204.38	101.449
1208.03	101.005
1211.68	105.43
1215.33	107.886
1218.98	107.936
1222.63	109.597
1226.28	109.851
1229.93	116.206
1233.58	116.752
1237.23	118.695
1240.88	116.208
1244.53	123.298
1248.18	123.509
1251.82	121.8
1255.47	131.29
1259.12	136.002
1262.77	129.7
1266.42	138.208
1270.07	153.574
1273.72	146.277
1277.37	152.489
1281.02	160.347
1284.67	159.393
1288.32	174.923
1291.97	189.038
1295.62	196.938
1299.27	216.353
1302.92	233.973
1306.57	255.949
1310.22	285.496
1313.87	319.724
1317.52	362.851
1321.17	401.895
1324.82	444.125
1328.47	496.771
1332.12	528.539
1335.77	553.587
1339.42	555.843
1343.07	542.432
1346.72	541.56
1350.36	515.755
1354.01	463.99
1357.66	420.517
1361.31	382.924
1364.96	352.111
1368.61	307.666
1372.26	282.722
1375.91	261.456
1379.56	223.932
1383.21	208.506
1386.86	211.033
1390.51	196.453
1394.16	181.269
1397.81	167.727
1401.46	170.867
1405.11	156.035
1408.76	160.266
1412.41	149.741
1416.06	152.135
1419.71	137.039
1423.36	132.274
1427.01	133.326
1430.66	132.42
1434.31	136.8
1437.96	137.091
1441.61	141.376
1445.26	138.4
1448.91	133.581
1452.55	137.378
1456.2	140.891
1459.85	135.224
1463.5	135.104
1467.15	136.8
1470.8	132.874
1474.45	137.033
1478.1	130.807
1481.75	139.455
1485.4	146.542
1489.05	141.441
1492.7	146.932
1496.35	150.139
1500	143.055
1503.65	146.621
1507.3	159.571
1510.95	150.078
1514.6	157.31
1518.25	167.552
1521.9	184.999
1525.55	188.052
1529.2	202.14
1532.85	224.313
1536.5	227.877
1540.15	274.139
1543.8	295.987
1547.45	337.893
1551.09	385.197
1554.74	442.01
1558.39	512.81
1562.04	564.739
1565.69	616.841
1569.34	647.701
1572.99	665.142
1576.64	631.055
1580.29	599.961
1583.94	550.291
1587.59	495.198
1591.24	460.001
1594.89	419.888
1598.54	401.129
1602.19	383.765
1605.84	375.851
1609.49	344.215
1613.14	316.069
1616.79	282.203
1620.44	247.276
1624.09	214.456
1627.74	196.942
1631.39	169.142
1635.04	157.045
1638.69	139.854
1642.34	130.244
1645.99	118.734
1649.64	110.496
1653.28	104.095
1656.93	100.047
1660.58	93.5468
1664.23	85.9141
1667.88	86.0303
1671.53	84.9915
1675.18	83.4115
1678.83	83.7595
1682.48	80.1624
1686.13	76.2806
1689.78	72.7896
1693.43	72.2319
1697.08	76.0091
1700.73	74.1505
1704.38	72.8673
1708.03	74.6943
1711.68	69.5031
1715.33	68.9051
1718.98	70.3528
1722.63	69.6757
1726.28	71.1312
1729.93	67.7198
1733.58	67.4518
1737.23	67.9609
1740.88	63.2541
1744.53	66.2132
1748.18	69.9797
1751.82	65.123
1755.47	62.5574
1759.12	65.1446
1762.77	63.1653
1766.42	61.2162
1770.07	69.4246
1773.72	62.1334
1777.37	64.2779
1781.02	62.9557
1784.67	63.6398
1788.32	64.195
1791.97	63.3918
1795.62	62.9851
1799.27	65.2743
1802.92	60.2639
1806.57	65.2149
1810.22	62.6691
1813.87	65.1505
1817.52	71.6196
1821.17	64.7664
1824.82	64.0005
1828.47	68.0072
1832.12	64.4394
1835.77	61.8982
1839.42	64.8088
1843.07	66.2942
1846.72	63.6636
1850.36	67.588
1854.01	63.9002
1857.66	61.4393
1861.31	63.1673
1864.96	71.3643
1868.61	71.4943
1872.26	64.4034
1875.91	68.5417
1879.56	66.5343
1883.21	70.0961
1886.86	61.93
1890.51	66.2734
1894.16	67.8797
1897.81	67.1817
1901.46	64.3591
1905.11	66.1875
1908.76	63.4379
1912.41	66.6666
1916.06	65.6288
1919.71	58.9658
1923.36	59.7651
1927.01	61.7439
1930.66	64.1913
1934.31	64.8341
1937.96	64.5359
1941.61	70.3194
1945.26	61.8896
1948.91	62.2624
1952.55	66.6022
1956.2	57.6266
1959.85	60.8986
1963.5	57.1667
1967.15	65.2562
1970.8	64.2691
1974.45	63.7175
1978.1	63.0818
1981.75	65.9962
1985.4	67.2073
1989.05	66.8319
1992.7	67.0098
1996.35	66.7655
2000	66.5774