File: Example Data/Raman/Kara/05-21-10/CNT m2 3-6-2008/CNT m2_3_Si only.txt
50	62.2491
60.0413	43.2412
70.0827	103.341
80.124	158.962
90.1653	145.841
100.207	155.521
110.248	222.011
120.289	152.279
130.331	142.32
140.372	158.533
150.413	132.333
160.455	131.352
170.496	119.608
180.537	123.134
190.579	117.945
200.62	123.538
210.661	127.852
220.703	135.416
230.744	136.482
240.785	142.609
250.827	139.695
260.868	157.694
270.909	144.925
280.951	140.698
290.992	161.224
301.033	150.992
311.075	157.674
321.116	143.183
331.157	137.289
341.199	131.108
351.24	129.162
361.281	121.753
371.323	112.052
381.364	101.431
391.405	101.528
401.447	102.495
411.488	88.0813
421.529	96.0387
431.571	97.125
441.612	90.5401
451.653	86.1411
461.695	73.5371
471.736	83.4991
481.777	86.7533
491.819	96.3847
501.86	111.698
511.901	183.069
521.943	4248.91
531.984	271.986
542.025	121.289
552.067	93.4784
562.108	82.6667
572.149	79.2479
582.191	69.0387
592.232	72.9322
602.273	74.8028
612.315	80.5948
622.356	88.3562
632.397	89.2421
642.439	81.7437
652.48	88.6805
662.521	89.9576
672.563	99.2107
682.604	91.926
692.645	95.9034
702.687	94.8018
712.728	97.9369
722.769	99.97
732.811	103.93
742.852	106.214
752.893	107.725
762.935	109.845
772.976	128.52
783.017	125.675
793.059	125.909
803.1	130.985
813.141	142.724
823.183	142.915
833.224	140.651
843.265	138.204
853.307	140.048
863.348	137.653
873.389	128.973
883.431	112.368
893.472	109.866
903.513	97.7513
913.555	91.5721
923.596	86.1238
933.637	116.108
943.679	165.801
953.72	162.309
963.761	159.464
973.803	165.063
983.844	154.026
993.885	120.78
1003.93	89.4504
1013.97	81.5516
1024.01	77.545
1034.05	73.6881
1044.09	67.5102
1054.13	63.1841
1064.17	62.7097
1074.22	47.733
1084.26	44.5321
1094.3	40.8359
1104.34	44.4385
1114.38	42.4258
1124.42	40.7925
1134.46	38.9093
1144.51	39.7003
1154.55	32.5161
1164.59	31.4315
1174.63	29.1943
1184.67	29.8137
1194.71	26.9969
1204.75	30.235
1214.79	27.3249
1224.84	27.0401
1234.88	30.5689
1244.92	30.2178
1254.96	28.8626
1265	28
1275.04	31.1335
1285.08	29.9895
1295.13	37.8872
1305.17	39.0654
1315.21	40.1508
1325.25	51.077
1335.29	55.9935
1345.33	60.4138
1355.37	61.797
1365.41	57.6872
1375.46	51.6034
1385.5	45.3913
1395.54	37.0873
1405.58	42.6046
1415.62	34.6106
1425.66	30.4329
1435.7	32.1093
1445.75	31.8057
1455.79	26.7716
1465.83	35.0773
1475.87	34.3199
1485.91	32.8182
1495.95	30.4903
1505.99	30.2949
1516.03	35.6457
1526.08	34.2806
1536.12	30.352
1546.16	38.1686
1556.2	52.3105
1566.24	49.8201
1576.28	62.2242
1586.32	78.9927
1596.37	61.8139
1606.41	51.9688
1616.45	50.5523
1626.49	43.1831
1636.53	38.6012
1646.57	28.228
1656.61	30.5594
1666.65	25.8776
1676.7	29.9354
1686.74	24.6828
1696.78	26.3086
1706.82	27.2408
1716.86	25.5986
1726.9	22.7372
1736.94	22.3479
1746.99	23.0936
1757.03	25.693
1767.07	24.3787
1777.11	26.2083
1787.15	17.5367
1797.19	23.0978
1807.23	28.2643
1817.27	24.0604
1827.32	23.96
1837.36	20.4028
1847.4	27.4071
1857.44	25.2959
1867.48	25.333
1877.52	24.3515
1887.56	25.1041
1897.61	24.4698
1907.65	21.4941
1917.69	18.6783
1927.73	27.9509
1937.77	30.1682
1947.81	22.9725
1957.85	23.188
1967.89	24.092
1977.94	25.1171
1987.98	29.2985
1998.02	27.6373
2008.06	26.566
2018.1	24.6908
2028.14	26.6148
2038.18	26.983
2048.23	31.4596
2058.27	27.1168
2068.31	23.4128
2078.35	29.0607
2088.39	26.6901
2098.43	23.9869
2108.47	22.1894
2118.51	27.4981
2128.56	22.1899
2138.6	24.9109
2148.64	31.4871
2158.68	28.5193
2168.72	27.59
2178.76	26.65
2188.8	29.3205
2198.85	27.8423
2208.89	28.816
2218.93	25.8982
2228.97	25.0461
2239.01	25.3259
2249.05	28.6508
2259.09	28.1409
2269.13	28.3765
2279.18	24.2844
2289.22	26.6667
2299.26	22.1124
2309.3	28.5687
2319.34	26.8028
2329.38	51.9417
2339.42	25.1855
2349.47	27.1249
2359.51	29.4072
2369.55	29.2525
2379.59	27.3913
2389.63	29.3145
2399.67	31.4551
2409.71	30.2548
2419.75	32.6767
2429.8	31.1407
2439.84	30.4459
2449.88	31.9915
2459.92	29.8333
2469.96	33.2326
2480	30.2322
2490.04	27.6327
2500.09	29.8228
2510.13	30.4686
2520.17	34.2166
2530.21	34.1824
2540.25	28.8904
2550.29	34.0748
2560.33	27.1471
2570.37	35.1365
2580.42	32.1239
2590.46	32.7752
2600.5	32.5358
2610.54	34.8177
2620.58	34.972
2630.62	34.0052
2640.66	38.3554
2650.71	36.1856
2660.75	42.6867
2670.79	46.488
2680.83	50.3778
2690.87	58.0515
2700.91	52.0985
2710.95	54.7943
2720.99	52.0152
2731.04	46.4228
2741.08	45.8511
2751.12	35.7514
2761.16	36.5459
2771.2	32.0237
2781.24	35.3627
2791.28	33.5862
2801.32	33.368
2811.37	30.5065
2821.41	36.3821
2831.45	27.2675
2841.49	34.5939
2851.53	27.8598
2861.57	30.5892
2871.61	28.3737
2881.66	35.5935
2891.7	35.2726
2901.74	31.2118
2911.78	28.6299
2921.82	36.3152
2931.86	33.3359
2941.9	31.2806
2951.95	32.5016
2961.99	33.9885
2972.03	35.904
2982.07	31.8499
2992.11	26.1327
3000	31.0373