File: Example Data/Raman/Kara/05-21-10/CNT m2 3-6-2008/CNT m2_4.txt
50	2.39311
60.0413	1.95664
70.0827	47.5678
80.124	110.919
90.1653	102.905
100.207	108.227
110.248	139.962
120.289	115.478
130.331	97.6459
140.372	99.795
150.413	85.8051
160.455	93.2812
170.496	84.1277
180.537	84.8275
190.579	84.2059
200.62	90.7817
210.661	83.1116
220.703	90.314
230.744	88.747
240.785	86.7828
250.827	86.28
260.868	87.7757
270.909	95.8761
280.951	89.7907
290.992	81.5537
301.033	88.4045
311.075	83.4665
321.116	78.2042
331.157	78.9348
341.199	77.8609
351.24	71.0166
361.281	71.6485
371.323	69.2155
381.364	62.8719
391.405	63.7829
401.447	60.8289
411.488	61.0817
421.529	56.8987
431.571	57.8915
441.612	55.7226
451.653	59.6245
461.695	55.4975
471.736	58.1941
481.777	49.013
491.819	54.8235
501.86	50.5504
511.901	50.8
521.943	52.2813
531.984	47.5965
542.025	50.8125
552.067	51.3682
562.108	49.4446
572.149	47.1787
582.191	51.7982
592.232	49.039
602.273	49.9346
612.315	56.2982
622.356	50.1358
632.397	54.6102
642.439	54.2478
652.48	58.966
662.521	58.9618
672.563	60.6947
682.604	62.7039
692.645	64.8716
702.687	67.2722
712.728	65.55
722.769	66.734
732.811	70.9553
742.852	74.5318
752.893	79.1539
762.935	85.7429
772.976	82.156
783.017	83.7956
793.059	84.55
803.1	92.5305
813.141	86.6947
823.183	97.2983
833.224	92.4121
843.265	94.8694
853.307	92.0258
863.348	94.1067
873.389	86.7298
883.431	80.4506
893.472	69.0417
903.513	63.2164
913.555	57.7027
923.596	52.6104
933.637	49.4138
943.679	46.045
953.72	49.1358
963.761	44.6521
973.803	42.1526
983.844	44.7234
993.885	46.4542
1003.93	44.9185
1013.97	43.7725
1024.01	47.0131
1034.05	50.4
1044.09	51.4345
1054.13	51.6893
1064.17	45.2613
1074.22	47.6801
1084.26	37.2939
1094.3	44.0648
1104.34	42.911
1114.38	42.3924
1124.42	41.5824
1134.46	35.0935
1144.51	32.5823
1154.55	35.1807
1164.59	36.6331
1174.63	34.9549
1184.67	30.4976
1194.71	31.2299
1204.75	34.3137
1214.79	38.2208
1224.84	40.2918
1234.88	34.0745
1244.92	39.5446
1254.96	39.8313
1265	42.4584
1275.04	45.2458
1285.08	49.8274
1295.13	60.007
1305.17	71.7464
1315.21	91.6945
1325.25	120.557
1335.29	151.802
1345.33	160.597
1355.37	148.829
1365.41	113.845
1375.46	88.4218
1385.5	70.2069
1395.54	61.5136
1405.58	54.0712
1415.62	47.8
1425.66	47.7602
1435.7	45.2305
1445.75	43.2331
1455.79	48.4065
1465.83	39.4744
1475.87	46.4765
1485.91	46.4726
1495.95	47.0002
1505.99	46.7411
1516.03	51.7066
1526.08	58.5119
1536.12	66.3545
1546.16	88.191
1556.2	128.921
1566.24	173.12
1576.28	206.639
1586.32	180.557
1596.37	152.164
1606.41	126.756
1616.45	107.328
1626.49	78.2169
1636.53	55.875
1646.57	40.8052
1656.61	32.7668
1666.65	29.5491
1676.7	28.1863
1686.74	23.3496
1696.78	23.2209
1706.82	22.3779
1716.86	22.5515
1726.9	26.4447
1736.94	24
1746.99	20.4074
1757.03	21.142
1767.07	21.4564
1777.11	20.8375
1787.15	22.5178
1797.19	21.5194
1807.23	20.2414
1817.27	18.4214
1827.32	22.2469
1837.36	23.135
1847.4	20.624
1857.44	24.6663
1867.48	19.2543
1877.52	23.4109
1887.56	17.9481
1897.61	28.9559
1907.65	21.0894
1917.69	23.0487
1927.73	20.1392
1937.77	21.8996
1947.81	21.2887
1957.85	19.8812
1967.89	19.9793
1977.94	21.723
1987.98	21.3507
1998.02	22.2277
2008.06	22.149
2018.1	23.1478
2028.14	16.6978
2038.18	21.4048
2048.23	25.535
2058.27	20.2863
2068.31	22.2774
2078.35	19.8452
2088.39	22.2737
2098.43	23.8475
2108.47	24.8934
2118.51	21.7089
2128.56	19.3722
2138.6	21.5896
2148.64	21.0479
2158.68	22.0271
2168.72	21.9529
2178.76	22.0804
2188.8	22.3177
2198.85	20.4045
2208.89	21.5998
2218.93	21.0511
2228.97	22.1671
2239.01	22.7468
2249.05	18.9714
2259.09	17.8423
2269.13	18.1506
2279.18	21.6691
2289.22	21.9682
2299.26	21.4757
2309.3	18.0437
2319.34	20.8454
2329.38	31.872
2339.42	24.1774
2349.47	20.6562
2359.51	23.7969
2369.55	21.9454
2379.59	18.9403
2389.63	18.9386
2399.67	24.6779
2409.71	28.0136
2419.75	26.0383
2429.8	26.876
2439.84	32.5757
2449.88	30.5652
2459.92	31.7864
2469.96	31.4558
2480	31.2225
2490.04	28.7796
2500.09	33.2057
2510.13	26.5879
2520.17	29.893
2530.21	31.6778
2540.25	29.8565
2550.29	33.0607
2560.33	30.5307
2570.37	38.0384
2580.42	37.3949
2590.46	40.5765
2600.5	45.3739
2610.54	50.7838
2620.58	56.1365
2630.62	67.5798
2640.66	72.6008
2650.71	95.8183
2660.75	108.938
2670.79	123.343
2680.83	131.361
2690.87	130.566
2700.91	120.908
2710.95	102.745
2720.99	93.0715
2731.04	72.3991
2741.08	62.0789
2751.12	52.4135
2761.16	44.9759
2771.2	38.7758
2781.24	37.5093
2791.28	37.5046
2801.32	36.1997
2811.37	28.4864
2821.41	31.4357
2831.45	34.2438
2841.49	32.587
2851.53	33.3288
2861.57	36.9349
2871.61	34.7879
2881.66	37.3765
2891.7	31.214
2901.74	38.0697
2911.78	39.7937
2921.82	38.7307
2931.86	35.6775
2941.9	35.6456
2951.95	35.7447
2961.99	34.5862
2972.03	29.9712
2982.07	31.604
2992.11	30.4149
3000	25.9264