File: Example Data/Raman/Kara/12-20-10/Si-Graphene/5bulk/SGbulk_5.txt
300	331.894
312.649	356.79
325.298	377.634
337.946	403.554
350.595	386.631
363.244	380.657
375.893	372.283
388.542	365.685
401.19	361.469
413.839	353.412
426.488	387.192
439.137	412.206
451.786	457.504
464.435	505.73
477.083	602.903
489.732	807.301
502.381	1385.67
515.03	1100.81
527.679	418.256
540.327	277.601
552.976	244.509
565.625	221.832
578.274	217.901
590.923	226.478
603.571	239.903
616.22	234.477
628.869	229.254
641.518	221.449
654.167	217.218
666.815	221.152
679.464	208.5
692.113	220.657
704.762	207.908
717.411	231.798
730.06	231.601
742.708	221.964
755.357	233.552
768.006	236.161
780.655	231.358
793.304	245.71
805.952	241.947
818.601	248.736
831.25	251.534
843.899	255.565
856.548	258.49
869.196	273.008
881.845	277.528
894.494	299.775
907.143	309.682
919.792	316.155
932.44	305.974
945.089	315.222
957.738	274.813
970.387	257.153
983.036	232.2
995.685	234.935
1008.33	218.928
1020.98	223.877
1033.63	221.925
1046.28	229.316
1058.93	214.821
1071.58	221.049
1084.23	227.102
1096.875	218.728
1109.52	212.78
1122.17	230.214
1134.82	217.601
1147.47	219.424
1160.12	231.441
1172.77	236.807
1185.42	223.504
1198.07	242.956
1210.71	245.607
1223.36	236.455
1236.01	244.297
1248.66	260.924
1261.31	257.243
1273.96	261.578
1286.61	258.835
1299.26	279.374
1311.9	278.749
1324.55	287.847
1337.2	306.411
1349.85	312.506
1362.5	313.607
1375.15	315.891
1387.8	294.218
1400.45	299.212
1413.1	300.778
1425.74	312.786
1438.39	315.443
1451.04	318.976
1463.69	324.528
1476.34	319.442
1488.99	322.485
1501.64	329.352
1514.29	325.333
1526.93	329.752
1539.58	326.783
1552.23	338.045
1564.88	354.983
1577.53	361.566
1590.18	367.173
1602.83	375.659
1615.48	359.476
1628.125	365.985
1640.77	366.415
1653.42	369.461
1666.07	358.617
1678.72	369.01
1691.37	370.963
1704.02	388.361
1716.67	370.851
1729.32	392.786
1741.96	383.149
1754.61	382.279
1767.26	398.834
1779.91	415.82
1792.56	420.5
1805.21	409.151
1817.86	418.941
1830.51	427.835
1843.15	432.622
1855.8	433.706
1868.45	445.422
1881.1	458.465
1893.75	468.115
1906.4	454.127
1919.05	457.362
1931.7	467.632
1944.35	468.171
1956.99	478.145
1969.64	492.959
1982.29	491.396
1994.94	498.284
2007.59	508.921
2020.24	525.553
2032.89	531.994
2045.54	543.047
2058.18	535.391
2070.83	530.599
2083.48	553.683
2096.13	558.151
2108.78	570.222
2121.43	579.804
2134.08	586.472
2146.73	601.427
2159.375	601.429
2172.02	608.191
2184.67	616.841
2197.32	633.956
2209.97	633.483
2222.62	635.636
2235.27	654.404
2247.92	652.458
2260.57	674.809
2273.21	700.966
2285.86	695.244
2298.51	707.267
2311.16	716.213
2323.81	736.71
2336.46	753.343
2349.11	736.982
2361.76	776.145
2374.4	775.716
2387.05	783.413
2399.7	812.74
2412.35	816.358
2425	825.207
2437.65	868.024
2450.3	880.236
2462.95	886.887
2475.6	880.423
2488.24	887.013
2500.89	905.119
2513.54	914.708
2526.19	928.688
2538.84	929.47
2551.49	968.611
2564.14	978.912
2576.79	998.407
2589.43	987.823
2602.08	1037.74
2614.73	1025.88
2627.38	1047.91
2640.03	1059.24
2652.68	1074.65
2665.33	1120.85
2677.98	1116.73
2690.625	1141.23
2703.27	1162.16
2715.92	1177.4
2728.57	1210.08
2741.22	1217.05
2753.87	1238.88
2766.52	1234.95
2779.17	1271.89
2791.82	1287.93
2804.46	1290.73
2817.11	1320.58
2829.76	1349.09
2842.41	1356.74
2855.06	1370.64
2867.71	1416.17
2880.36	1451.11
2893.01	1458.73
2905.65	1492.34
2918.3	1551.49
2930.95	1551.04
2943.6	1570.9
2956.25	1601.31
2968.9	1629.54
2981.55	1641.81
2994.2	1656.98
3006.85	1702.6
3019.49	1729.91
3032.14	1770.38
3044.79	1784.82
3057.44	1829.37
3070.09	1841.82
3082.74	1885.36
3095.39	1941.57
3108.04	1916.53
3120.68	1957.54
3133.33	1988.83
3145.98	2004.82
3158.63	2052.6
3171.28	2077.3
3183.93	2101.43
3196.58	2167.86
3209.23	2222.77
3221.875	2250.88
3234.52	2314.79
3247.17	2310.65
3259.82	2358.94
3272.47	2415.52
3285.12	2426.3
3297.77	2486.34
3310.42	2482.81
3323.07	2529.22
3335.71	2525.83
3348.36	2582.69
3361.01	2634.93
3373.66	2677.11
3386.31	2678.36
3398.96	2748.01
3411.61	2789.64
3424.26	2818.14
3436.9	2896.64
3449.55	2949.27
3462.2	2988.81
3474.85	3035.25
3487.5	3058.74
3500.15	3141.2
3512.8	3150.54
3525.45	3186.61
3538.1	3279.52
3550.74	3292.58
3563.39	3359.19
3576.04	3377.32
3588.69	3504.25
3601.34	3528.01
3613.99	3563.37
3626.64	3564.96
3639.29	3629.45
3651.93	3690.64
3664.58	3736.46
3677.23	3764.22
3689.88	3836.07
3700	3865.34