File: Example Data/Raman/Kara/12-20-10/Si-Graphene/5bulk/SGbulk_2.txt
400	378.601
412.576	415.601
425.152	476.786
437.729	496.552
450.305	540.059
462.881	655.911
475.457	835.622
488.034	1238.44
500.61	2290.99
513.186	2314.18
525.762	740.141
538.338	404.949
550.915	304.509
563.491	270.479
576.067	273.289
588.643	281.025
601.219	294.151
613.796	284.119
626.372	280.114
638.948	267.559
651.524	260.997
664.101	264.483
676.677	244.894
689.253	248.667
701.829	239.905
714.406	246.357
726.982	241.979
739.558	250.503
752.134	256.442
764.71	264.625
777.287	263.907
789.863	274.021
802.439	278.858
815.015	282.232
827.591	287.813
840.168	296.755
852.744	303.494
865.32	317.443
877.896	327.212
890.473	352.889
903.049	402.53
915.625	438.842
928.201	433.955
940.777	412.934
953.354	401.71
965.93	341.419
978.506	301.252
991.082	269.249
1003.66	246.972
1016.23	240.722
1028.81	235.327
1041.39	241.807
1053.96	242.66
1066.54	227.301
1079.12	237.691
1091.69	231.871
1104.27	232.141
1116.84	230.12
1129.42	235.792
1142	221.858
1154.57	230.325
1167.15	243.765
1179.73	247.165
1192.3	238.087
1204.88	253.497
1217.45	245.25
1230.03	249.327
1242.61	268.575
1255.18	277.374
1267.76	279.095
1280.34	285.245
1292.91	291.118
1305.49	293.606
1318.06	312.194
1330.64	327.547
1343.22	345.008
1355.79	350.597
1368.37	338.764
1380.95	337.229
1393.52	316.577
1406.1	315.487
1418.67	317.532
1431.25	320.528
1443.83	312.671
1456.4	338.84
1468.98	337.913
1481.55	347.177
1494.13	339.273
1506.71	335.121
1519.28	341.908
1531.86	356.062
1544.44	368.417
1557.01	369.277
1569.59	405.82
1582.16	403.865
1594.74	401.483
1607.32	397.817
1619.89	387.401
1632.47	372.085
1645.05	371.142
1657.62	379.933
1670.2	385.226
1682.77	374.443
1695.35	384.609
1707.93	384.725
1720.5	401.13
1733.08	391.196
1745.66	410.594
1758.23	411.407
1770.81	408.742
1783.38	440.424
1795.96	419.764
1808.54	430.878
1821.11	437.345
1833.69	443.465
1846.27	451.854
1858.84	453.877
1871.42	465.243
1883.99	473.211
1896.57	476.338
1909.15	473.988
1921.72	478.848
1934.3	500.605
1946.875	487.767
1959.45	501.891
1972.03	501.804
1984.6	511.773
1997.18	523.025
2009.76	525.495
2022.33	547.296
2034.91	542.368
2047.48	558.542
2060.06	562.35
2072.64	570.19
2085.21	585.906
2097.79	566.78
2110.37	594.912
2122.94	596.479
2135.52	626.028
2148.09	632.019
2160.67	639.975
2173.25	649.132
2185.82	677.478
2198.4	676.533
2210.98	675.388
2223.55	702.652
2236.13	711.714
2248.7	726.211
2261.28	722.131
2273.86	761.511
2286.43	760.787
2299.01	782.737
2311.59	794.649
2324.16	803.385
2336.74	838.937
2349.31	823.655
2361.89	826.148
2374.47	853.834
2387.04	869.509
2399.62	884.946
2412.2	894.137
2424.77	926.416
2437.35	952.797
2449.92	968.617
2462.5	970.006
2475.08	972.728
2487.65	968.301
2500.23	993.25
2512.8	996.738
2525.38	1028.13
2537.96	1067.02
2550.53	1056.52
2563.11	1090.95
2575.69	1095.73
2588.26	1095.65
2600.84	1118.31
2613.41	1147.04
2625.99	1159.78
2638.57	1175.74
2651.14	1186.59
2663.72	1180.72
2676.3	1218.65
2688.87	1244.94
2701.45	1256.44
2714.02	1271.19
2726.6	1290.19
2739.18	1324.25
2751.75	1330.88
2764.33	1360.74
2776.91	1365.17
2789.48	1382.92
2802.06	1401
2814.63	1418.44
2827.21	1454.1
2839.79	1472.16
2852.36	1491.59
2864.94	1517.28
2877.52	1546.57
2890.09	1565.39
2902.67	1591.21
2915.24	1615.43
2927.82	1612.23
2940.4	1663.2
2952.97	1681.21
2965.55	1687.61
2978.125	1694.67
2990.7	1716.11
3003.28	1747.1
3015.85	1763.37
3028.43	1791.64
3041.01	1823.23
3053.58	1851.64
3066.16	1867.52
3078.73	1919.85
3091.31	1954.05
3103.89	1978
3116.46	2016.4
3129.04	1998.31
3141.62	2021.13
3154.19	2087.37
3166.77	2078.62
3179.34	2115.49
3191.92	2202.21
3204.5	2214.44
3217.07	2264.61
3229.65	2335.13
3242.23	2336.52
3254.8	2362.47
3267.38	2418.9
3279.95	2438.13
3292.53	2482.87
3305.11	2490.54
3317.68	2524.37
3330.26	2591.3
3342.84	2585.87
3355.41	2613.58
3367.99	2671.18
3380.56	2727.21
3393.14	2737.65
3405.72	2801.27
3418.29	2840.45
3430.87	2882.94
3443.45	2923.06
3456.02	2957.56
3468.6	2994.28
3481.17	3074.74
3493.75	3107.91
3506.33	3129.6
3518.9	3196.99
3531.48	3240.66
3544.05	3284.87
3556.63	3330.05
3569.21	3378.42
3581.78	3439.45
3594.36	3524.98
3606.94	3563.87
3619.51	3598.79
3632.09	3611.82
3644.66	3653.22
3657.24	3718.02
3669.82	3788.32
3682.39	3805.14
3694.97	3858.83
3700	3919.67