File: Example Data/Raman/CNT - TIM/Raytheon/Al foil/2011/02-28-11/Al - B30 - top_2.txt
310.397
326.876
328.127
355.57
347.661
339.394
351.13
357.135
363.43
337.194
323.649
343.246
346.119
335.807
332.062
295.156
311.321
299.246
317.484
270.243
282.043
270.005
267.669
262.443
260.455
258.157
266.174
261.046
237.608
239.725
232.869
230
222.797
231.309
233.228
212.855
215.987
214.544
195.673
220.409
190.99
205.576
174.161
190.652
186.953
168.589
165.58
136.955
119.22
146.167
118.899
131.951
124.222
120.793
122.615
130.6
122.982
123.758
125.596
131.244
141.31
152.468
144.799
151.511
156.092
147.339
165.514
165.235
165.876
180.952
200.497
194.804
182.75
205.286
205.077
209.138
214.914
211.277
212.91
220.161
204.368
223.597
216.73
243.524
252.359
258.694
278.24
279.515
288.014
311.794
304.474
319.614
339.211
351.233
346.816
359.698
357.791
370.639
372.247
389.045
399.214
393.663
433.959
420.293
411.827
424.893
441.985
452.105
418.264
401.784
391.83
406.023
384.601
352.554
367.9
358.152
346.064
369.38
356.939
380.049
380.134
370.581
391.918
399.144
431.255
458.723
482.486
513.733
543.355
566.766
608.495
633.363
701.674
697.189
725.507
763.608
760.803
782.938
795.338
824.768
834.388
837.57
872.648
898.718
944.819
954.618
987.181
1024.95
1049.16
1112.5
1116.55
1154.84
1194.44
1250.89
1294.76
1362.26
1393.41
1414.81
1456.62
1473.32
1504.58
1499.37
1563.56
1597.55
1654.68
1699.67
1752.87
1850.62
1882.27
1988.52
2076.57
2178.13
2294.49
2444.99
2560.45
2735.31
2866.86
3104.24
3362.49
3616.42
3918.92
4241.68
4540.8
4887.48
5086.16
5223.41
5248.36
5139.23
5004.28
4753.38
4410.02
4148.65
3868.67
3643.65
3407.97
3199.75
3027.21
2907.72
2801.51
2711.17
2639.3
2601.69
2513.44
2451.24
2503.19
2478.91
2480.19
2453.3
2431.24
2438.47
2472.19
2471.63
2503.06
2548.33
2606.88
2645.07
2742.61
2867.77
2989.15
3182.88
3464.76
3667.48
3983.94
4309.45
4625.68
4867.19
5003.62
4967.19
4806.05
4488.54
4031.51
3516.04
3021.88
2581.86
2188
1869.22
1604.28
1379.01
1165.17
999.158
905.099
798.713
722.865
662.478
618.521
577.317
545.538
503.584
497.552
452.309
467.411
446.121
436.326
428.409
410.696
424.005
406.786
420.118
412.528
399.529
403.061
409
375.734
388.618
404.077
387.821
393.602
392.59
396.467
389.944
416.366
384.783
388.26
395.971
376.707
382.499
391.834
372.626
374.387
386.14
394.555
387.277
396.281
389.364
394.461
396.138
396.346
399.265
379.141
406.492
505.957
402.254
402.241
399.333