File: Example Data/Raman/CNT - TIM/Raytheon/Al foil/2011/02-28-11/Al - B30 - bottom_1.txt
279.807
340.414
327.662
319.4
316.497
345.551
326.189
342.154
298.585
315.324
323.493
297.79
304.711
284.213
256.883
263.371
265.749
235.35
231.072
232.847
221.51
177.454
193.37
204.099
201.551
179.846
162.288
167.223
152.567
146.002
134.981
133.479
119.435
125.547
126.319
117.28
104.054
101.88
100.169
85.9497
90.679
80.9359
68.0895
47.569
492.164
48.9496
15.4886
10.801
-7.78725
-18.0807
-15.6321
-22.2043
-20.6165
-26.743
-28.5429
-27.0358
-37.4516
-48.4692
-31.2916
-49.32
-33.4251
-31.0678
-14.998
-25.3144
-8.53336
-23.5399
-26.4109
-25.0903
-10.9536
-12.2967
-12.7752
-6.28608
-15.8473
-7.46432
9.89597
-3.09284
-3.41357
-0.0625998
-14.0081
-3.49832
-17.3587
-7.88227
-24.7538
2.36454
4.65232
22.449
30.556
22.4825
32.7398
37.5905
48.1553
59.7631
63.0211
61.2353
79.5694
70.1789
100.419
87.5998
80.9483
98.5809
123.962
97.487
114.767
122.246
135.699
145.239
123.505
142.826
92.5816
93.6817
78.1961
58.7936
65.9571
39.7952
19.8696
-7.70376
12.3539
22.2635
8.20836
6.59188
-15.2674
15.5641
11.0099
8.96484
4.29542
11.0758
25.0999
21.0132
34.6033
36.0233
45.8868
57.9596
55.18
57.5166
59.2533
71.6223
60.6828
35.9909
21.2612
33.6067
21.7199
36.621
5.85952
25.821
18.8494
10.3926
26.4008
39.8727
35.5588
48.4665
66.5193
83.2842
124.712
125.828
178.047
185.547
239.899
209.97
202.563
218.137
230.942
225.791
260.588
249.48
278.612
286.64
313.35
364.464
407.101
447.106
522.15
631.351
598.836
826.563
945.211
1058.46
1235.15
1449.51
1649.61
1904.24
2186.49
2451.02
2719.48
3002.66
3203.41
3370.54
3420.37
3298.34
3048.18
2808.23
2444.98
2129.01
1767.44
1496.99
1248.48
1039.68
850.643
692.615
546.746
430.117
343.556
230.887
168.889
156.569
70.0691
43.4443
4.71116
-38.7692
22.6602
90.4456
132.134
237.277
305.072
380.302
452.52
577.536
694.322
871.253
1033.84
1312.28
1630.7
1861.35
2249.34
2666.75
3085.96
3414.52
3666.61
3734.11
3672.16
3388.23
2995.41
2474.42
1960.22
1512.06
1159.8
869.026
640.419
420.438
277.442
173.498
73.5761
35.6756
9.94721
26.8525
13.0396
31.0969
-1.26496
1.33119
5.43915
16.1526
33.3561
0.978495
7.73406
5.78617
-13.7185
-3.6763
-23.6798
-18.6748
-18.0442
-18.4644
-15.5146
-22.5577
-13.8843
-0.386588
-9.49782
-17.997
-8.54857
-14.2021
-11.6167
-4.94496
-7.11239
8.40928
-6.54032
12.8827
-19.9415
0.971956
13.4828
26.7007
13.5911
24.2347
14.773
11.8534
12.2534
20.757
25.138
30.7515
19.7562
55.6819
52.2017
47.0823
34.5629
61.0713
62.5544
73.3845