File: Example Data/Raman/CNT - TIM/Raytheon/Microwave/Test 1/CNT-MW - T1 - 030 sec - bottom.txt
300	385.333
306.744	391.177
313.488	376.979
320.232	392.629
326.976	389.607
333.72	381.505
340.465	380.044
347.209	375.615
353.953	392.325
360.697	378.972
367.441	364.547
374.185	370.994
380.929	362.962
387.673	368.528
394.417	361.216
401.161	362.522
407.906	349.548
414.65	353.991
421.394	362.5
428.138	346.034
434.882	348.516
441.626	336.832
448.37	350.907
455.114	322.406
461.858	336.016
468.602	324.884
475.347	323.937
482.091	302.151
488.835	312.878
495.579	318.087
502.323	298.939
509.067	304.42
515.811	295.913
522.555	295.215
529.299	298.448
536.043	306.694
542.788	308.789
549.532	305.177
556.276	291.654
563.02	294.429
569.764	307.394
576.508	305.083
583.252	316.978
589.996	302.736
596.74	299.139
603.484	315.468
610.229	315.417
616.973	312.604
623.717	310.484
630.461	328.052
637.205	324.852
643.949	323.575
650.693	328.274
657.437	330.457
664.181	321.401
670.925	327.257
677.67	331.281
684.414	332.022
691.158	337.368
697.902	342.776
704.646	334.329
711.39	335.097
718.134	353.632
724.878	353.609
731.622	356.851
738.366	356.779
745.111	367.048
751.855	366.252
758.599	356.43
765.343	374.716
772.087	366.531
778.831	387.105
785.575	379.078
792.319	396.874
799.063	386.933
805.807	404.865
812.552	386.469
819.296	408.347
826.04	420.238
832.784	419.971
839.528	418.115
846.272	417.318
853.016	408.528
859.76	403.427
866.504	399.867
873.248	391.294
879.992	396.264
886.737	389.465
893.481	372.265
900.225	364.486
906.969	357.052
913.713	355.061
920.457	349.655
927.201	352.628
933.945	352.724
940.689	364.665
947.433	362.401
954.178	353.24
960.922	371.612
967.666	358.835
974.41	379.187
981.154	381.267
987.898	387.296
994.642	398.103
1001.39	415.265
1008.13	406.818
1014.87	432.818
1021.62	434.43
1028.36	454.212
1035.11	471
1041.85	488.694
1048.59	494.223
1055.34	501.98
1062.08	511.331
1068.83	515.264
1075.57	546.628
1082.32	546.782
1089.06	564.706
1095.8	572.029
1102.55	588.614
1109.29	600.695
1116.04	620.181
1122.78	638.75
1129.52	664.227
1136.27	705.495
1143.01	705.541
1149.76	742.993
1156.5	769.809
1163.24	774.198
1169.99	787.852
1176.73	810.673
1183.48	808.437
1190.22	822.555
1196.97	875.344
1203.71	884.506
1210.45	927.972
1217.2	943.399
1223.94	981.461
1230.69	1022.24
1237.43	1054.07
1244.17	1111.65
1250.92	1139.52
1257.66	1207.54
1264.41	1268.88
1271.15	1349.39
1277.89	1430.91
1284.64	1494.07
1291.38	1570.59
1298.13	1689.78
1304.87	1795.1
1311.61	1908.15
1318.36	2025.25
1325.1	2099.96
1331.85	2159.44
1338.59	2138.15
1345.34	2134.43
1352.08	2145.58
1358.82	2045.24
1365.57	1953.65
1372.31	1850.23
1379.06	1747.34
1385.8	1698.82
1392.54	1595.89
1399.29	1511.07
1406.03	1461.96
1412.78	1411.52
1419.52	1356.42
1426.26	1308.27
1433.01	1297.37
1439.75	1267.03
1446.5	1234.47
1453.24	1224.57
1459.98	1268.19
1466.73	1223.09
1473.47	1244.09
1480.22	1239.95
1486.96	1223.29
1493.71	1228.6
1500.45	1232.51
1507.19	1244.47
1513.94	1240.93
1520.68	1248.24
1527.43	1306.4
1534.17	1339.43
1540.91	1409.13
1547.66	1478.24
1554.4	1614.58
1561.15	1701.92
1567.89	1848.23
1574.63	1984.75
1581.38	2088.3
1588.12	2187.87
1594.87	2202.51
1601.61	2121.84
1608.36	1962.56
1615.1	1736.7
1621.84	1471.76
1628.59	1249.5
1635.33	1051.12
1642.08	930.42
1648.82	805.021
1655.56	690.349
1662.31	598.093
1669.05	538.425
1675.8	472.542
1682.54	430.2
1689.28	396.33
1696.03	388.199
1702.77	376.796
1709.52	353.079
1716.26	347.671
1723	332.193
1729.75	311.415
1736.49	314.895
1743.24	304.809
1749.98	307.377
1756.73	299.446
1763.47	296.739
1770.21	299.522
1776.96	293.121
1783.7	281.03
1790.45	288.85
1797.19	279.429
1803.93	274.914
1810.68	280.918
1817.42	273.525
1824.17	284.202
1830.91	270.832
1837.65	271.696
1844.4	268.827
1851.14	286.094
1857.89	276.266
1864.63	260.862
1871.375	267.547
1878.12	261.143
1884.86	274.805
1891.61	269.139
1898.35	261.686
1905.1	268.171
1911.84	262.005
1918.58	279.271
1925.33	261.055
1932.07	251.607
1938.82	263.581
1945.56	267.288
1952.3	259.899
1959.05	270.684
1965.79	257.794
1972.54	258.759
1979.28	255.204
1986.02	252.765
1992.77	266.17
1999.51	269.242
2006.26	264.995
2013	263.053
2019.75	270.211
2026.49	261.693
2033.23	270.314
2039.98	256.707
2046.72	260.856
2053.47	264.489
2060.21	253.496
2066.95	253.542
2073.7	263.161
2080.44	267.215
2087.19	248.744
2093.93	259.834
2100.67	264.373
2107.42	253.16
2114.16	258.992
2120.91	262.504
2127.65	262.07
2134.4	260.729
2141.14	257.409
2147.88	260.225
2154.63	270.372
2161.37	251.082
2168.12	259.496
2174.86	262.386
2181.6	264.194
2188.35	273.318
2195.09	259.034
2201.84	266.911
2208.58	264.568
2215.32	271.708
2222.07	261.49
2228.81	265.531
2235.56	268.928
2242.3	269.567
2249.04	266.972
2255.79	271.074
2262.53	274.168
2269.28	267.698
2276.02	272.871
2282.77	273.512
2289.51	288.6
2296.25	291.271
2300	279.96