File: Example Data/Raman/CNT - TIM/Raytheon/Microwave/Test 1/CNT-MW - T1 - 0 sec.txt
300	385.313
306.744	419.039
313.488	412.416
320.232	395.258
326.976	395.061
333.72	409.58
340.465	403.54
347.209	397.627
353.953	390.784
360.697	396.361
367.441	408.934
374.185	385.234
380.929	381.011
387.673	379.523
394.417	382.203
401.161	365.833
407.906	377.624
414.65	368.924
421.394	370.383
428.138	383.038
434.882	370.276
441.626	364.257
448.37	373.12
455.114	372.842
461.858	363.327
468.602	339.952
475.347	329.626
482.091	346.832
488.835	330.801
495.579	317.775
502.323	320.914
509.067	303.534
515.811	321.76
522.555	308
529.299	309.422
536.043	322.34
542.788	308.207
549.532	316.785
556.276	318.223
563.02	323.608
569.764	325.847
576.508	327.735
583.252	320.58
589.996	350.306
596.74	310.95
603.484	321.753
610.229	328.584
616.973	341.848
623.717	329.973
630.461	342.498
637.205	332.579
643.949	347.469
650.693	352.493
657.437	346.592
664.181	350.265
670.925	352.16
677.67	343.744
684.414	352.913
691.158	362.132
697.902	348.454
704.646	362.64
711.39	356.802
718.134	347.517
724.878	361.558
731.622	380.12
738.366	369.605
745.111	390.467
751.855	384.009
758.599	395.419
765.343	403.54
772.087	403.219
778.831	406.225
785.575	409.763
792.319	412.66
799.063	407.564
805.807	424.066
812.552	438.355
819.296	430.881
826.04	443.119
832.784	437.902
839.528	439.626
846.272	448.547
853.016	443.925
859.76	454.088
866.504	418.417
873.248	423.131
879.992	404.907
886.737	406.87
893.481	401.724
900.225	396.372
906.969	386.851
913.713	391.176
920.457	391.143
927.201	390.871
933.945	397.066
940.689	382.373
947.433	395.159
954.178	392.775
960.922	402.907
967.666	425.146
974.41	422.454
981.154	411.035
987.898	448.393
994.642	446.802
1001.39	469.256
1008.13	464.335
1014.87	474.629
1021.62	511.545
1028.36	532.929
1035.11	552.756
1041.85	566.042
1048.59	581.828
1055.34	585.166
1062.08	612.151
1068.83	623.272
1075.57	631.7
1082.32	654.6
1089.06	686.938
1095.8	716.878
1102.55	747.345
1109.29	754.191
1116.04	777.314
1122.78	799.436
1129.52	867.222
1136.27	894.699
1143.01	929.209
1149.76	984.09
1156.5	1013.32
1163.24	1071.16
1169.99	1069.9
1176.73	1098.74
1183.48	1133.77
1190.22	1154.16
1196.97	1179.09
1203.71	1207.7
1210.45	1245.86
1217.2	1291.78
1223.94	1345.68
1230.69	1420.98
1237.43	1453.9
1244.17	1566.04
1250.92	1619.67
1257.66	1723.32
1264.41	1780.59
1271.15	1930.37
1277.89	2072.61
1284.64	2206.1
1291.38	2331.82
1298.13	2533.72
1304.87	2733.15
1311.61	2911.85
1318.36	3126.57
1325.1	3251.67
1331.85	3379.24
1338.59	3433.4
1345.34	3431.96
1352.08	3348.44
1358.82	3236.18
1365.57	3034.94
1372.31	2905.03
1379.06	2713.1
1385.8	2539.11
1392.54	2343.39
1399.29	2283.31
1406.03	2121.05
1412.78	2054.09
1419.52	1972.33
1426.26	1895.54
1433.01	1816.86
1439.75	1788.23
1446.5	1765.18
1453.24	1763.9
1459.98	1746.4
1466.73	1729.43
1473.47	1735.75
1480.22	1734.34
1486.96	1708.39
1493.71	1736.87
1500.45	1735.07
1507.19	1754.68
1513.94	1746.5
1520.68	1779.5
1527.43	1802.74
1534.17	1871.11
1540.91	1949.4
1547.66	2088.8
1554.4	2194.96
1561.15	2343.93
1567.89	2542.95
1574.63	2822.74
1581.38	3061.63
1588.12	3286.6
1594.87	3412.17
1601.61	3394.32
1608.36	3191.94
1615.1	2867.64
1621.84	2482.75
1628.59	2008.31
1635.33	1677.92
1642.08	1396.49
1648.82	1178.78
1655.56	1032.2
1662.31	877.544
1669.05	732.356
1675.8	636.029
1682.54	555.141
1689.28	500.476
1696.03	468.253
1702.77	432.604
1709.52	415.331
1716.26	392.29
1723	381.023
1729.75	362.597
1736.49	345.295
1743.24	336.229
1749.98	322.845
1756.73	325.11
1763.47	318.596
1770.21	317.019
1776.96	301.88
1783.7	307.922
1790.45	305.017
1797.19	282.389
1803.93	297.142
1810.68	301.382
1817.42	309.272
1824.17	291.166
1830.91	290.623
1837.65	292.198
1844.4	285.159
1851.14	293.008
1857.89	292.089
1864.63	295.765
1871.375	297.2
1878.12	291.899
1884.86	279.413
1891.61	282.648
1898.35	276.135
1905.1	280.944
1911.84	275.656
1918.58	273.735
1925.33	282.862
1932.07	275.736
1938.82	273.076
1945.56	273.173
1952.3	271.345
1959.05	271.688
1965.79	277.412
1972.54	282.16
1979.28	273.053
1986.02	275.666
1992.77	283.695
1999.51	278.432
2006.26	290.769
2013	289.3
2019.75	279.695
2026.49	284.748
2033.23	272.063
2039.98	289.454
2046.72	284.776
2053.47	272.955
2060.21	283.74
2066.95	280.895
2073.7	287.477
2080.44	276.893
2087.19	278.128
2093.93	270.057
2100.67	283.672
2107.42	278.03
2114.16	285.133
2120.91	285.22
2127.65	265.76
2134.4	280.486
2141.14	273.25
2147.88	282.784
2154.63	279.546
2161.37	288.846
2168.12	284.847
2174.86	292.551
2181.6	276.628
2188.35	284.581
2195.09	292.948
2201.84	284.11
2208.58	286.407
2215.32	286.089
2222.07	298.293
2228.81	305.037
2235.56	305.103
2242.3	294.172
2249.04	289.15
2255.79	294.553
2262.53	303.601
2269.28	307.114
2276.02	302.22
2282.77	302.26
2289.51	309.812
2296.25	306.753
2300	318.443