File: Example Data/Raman/CNT - TIM/Raytheon/Microwave/Test 1/CNT-MW - T1 - 120 sec - top.txt
300	348.764
306.744	377.508
313.488	365.291
320.232	359.945
326.976	366.673
333.72	359.558
340.465	352.547
347.209	354.864
353.953	364.25
360.697	336.834
367.441	347.615
374.185	333.968
380.929	340.225
387.673	348.088
394.417	322.333
401.161	318.295
407.906	321.109
414.65	320.355
421.394	338.27
428.138	318.693
434.882	310.634
441.626	337.422
448.37	313.284
455.114	303.084
461.858	287.704
468.602	302.403
475.347	299.787
482.091	296.924
488.835	299.583
495.579	294.42
502.323	282.512
509.067	277.235
515.811	280.09
522.555	271.625
529.299	276.178
536.043	279.998
542.788	263.579
549.532	278.97
556.276	290.319
563.02	276.929
569.764	279.706
576.508	272.501
583.252	287.742
589.996	302.473
596.74	287.322
603.484	289.546
610.229	291.726
616.973	294.233
623.717	292.469
630.461	288.539
637.205	300.314
643.949	313
650.693	312.393
657.437	306.969
664.181	317.126
670.925	308.645
677.67	309.572
684.414	301.891
691.158	307.684
697.902	311.955
704.646	319.494
711.39	322.432
718.134	313.522
724.878	327.728
731.622	336.49
738.366	342.828
745.111	352.591
751.855	355.382
758.599	352.269
765.343	355.506
772.087	348.75
778.831	359.728
785.575	367.154
792.319	378.525
799.063	371.674
805.807	384.909
812.552	393.207
819.296	391.313
826.04	393.798
832.784	408.693
839.528	412.798
846.272	403.375
853.016	397.487
859.76	387.513
866.504	385.116
873.248	381.813
879.992	364.021
886.737	379.019
893.481	351.244
900.225	362.405
906.969	355.128
913.713	349.962
920.457	350.016
927.201	354.062
933.945	349.196
940.689	358.417
947.433	357.999
954.178	359.489
960.922	363.269
967.666	347.922
974.41	363.28
981.154	375.898
987.898	366.991
994.642	385.353
1001.39	401.801
1008.13	404.767
1014.87	423.875
1021.62	444.528
1028.36	468.812
1035.11	475.323
1041.85	496.761
1048.59	483.167
1055.34	502.867
1062.08	516.669
1068.83	530.119
1075.57	552.539
1082.32	564.389
1089.06	583.867
1095.8	601.953
1102.55	624.339
1109.29	635.156
1116.04	650.705
1122.78	663.271
1129.52	700.514
1136.27	689.633
1143.01	738.841
1149.76	756.741
1156.5	787.849
1163.24	786.778
1169.99	811.133
1176.73	836.75
1183.48	865.183
1190.22	858.082
1196.97	900.26
1203.71	911.719
1210.45	950.339
1217.2	973.59
1223.94	996.822
1230.69	1044.14
1237.43	1082.18
1244.17	1156.95
1250.92	1177.81
1257.66	1254.24
1264.41	1307.09
1271.15	1391.67
1277.89	1480.8
1284.64	1599.05
1291.38	1674.1
1298.13	1797.8
1304.87	1952.01
1311.61	2087.49
1318.36	2259.32
1325.1	2394.77
1331.85	2501.26
1338.59	2545.7
1345.34	2503.72
1352.08	2462.64
1358.82	2344.12
1365.57	2226.5
1372.31	2087.56
1379.06	1965.42
1385.8	1835.83
1392.54	1739.87
1399.29	1637.08
1406.03	1573.85
1412.78	1514.88
1419.52	1437.6
1426.26	1408.86
1433.01	1384.33
1439.75	1380.08
1446.5	1345.26
1453.24	1322.47
1459.98	1339.49
1466.73	1321.8
1473.47	1319.43
1480.22	1296.29
1486.96	1300.52
1493.71	1323.69
1500.45	1323.11
1507.19	1337.84
1513.94	1359.57
1520.68	1386.99
1527.43	1428.69
1534.17	1475.79
1540.91	1531.41
1547.66	1639.73
1554.4	1780.75
1561.15	1911.96
1567.89	2060.83
1574.63	2200.53
1581.38	2321.97
1588.12	2381.28
1594.87	2410
1601.61	2315.78
1608.36	2162.59
1615.1	1950.08
1621.84	1657.82
1628.59	1423.86
1635.33	1187
1642.08	1020.55
1648.82	875.156
1655.56	741.796
1662.31	655.256
1669.05	560.317
1675.8	503.369
1682.54	451.234
1689.28	414.887
1696.03	379.191
1702.77	363.093
1709.52	339.272
1716.26	328.219
1723	328.261
1729.75	308.891
1736.49	303.893
1743.24	294.186
1749.98	290.489
1756.73	282.403
1763.47	289.876
1770.21	269.914
1776.96	277.761
1783.7	270.992
1790.45	279.024
1797.19	273.062
1803.93	267.732
1810.68	276.137
1817.42	267.988
1824.17	277.357
1830.91	266.743
1837.65	259.942
1844.4	259.551
1851.14	266.073
1857.89	265.104
1864.63	258.24
1871.375	259.666
1878.12	257.186
1884.86	268.522
1891.61	265.57
1898.35	253.665
1905.1	256.872
1911.84	252.404
1918.58	255.743
1925.33	255.271
1932.07	259.853
1938.82	257.108
1945.56	249.814
1952.3	252.22
1959.05	252.916
1965.79	243.085
1972.54	262.798
1979.28	251.156
1986.02	259.208
1992.77	258.108
1999.51	262.829
2006.26	260.495
2013	253.202
2019.75	255.101
2026.49	253.163
2033.23	252.984
2039.98	256.497
2046.72	257.603
2053.47	255.744
2060.21	252.294
2066.95	259.809
2073.7	252.503
2080.44	255.755
2087.19	251.94
2093.93	244.258
2100.67	254.976
2107.42	248.375
2114.16	252.758
2120.91	248
2127.65	263.641
2134.4	252.351
2141.14	256.04
2147.88	260.794
2154.63	255.728
2161.37	271.758
2168.12	269.931
2174.86	262.903
2181.6	260.017
2188.35	274.85
2195.09	257.601
2201.84	250.43
2208.58	271.889
2215.32	262.41
2222.07	261.07
2228.81	262.256
2235.56	268.098
2242.3	265.93
2249.04	269.456
2255.79	270.847
2262.53	264.74
2269.28	284.641
2276.02	282.207
2282.77	269.222
2289.51	282.967
2296.25	280.208
2300	288.174