File: Example Data/Raman/CNT - TIM/Raytheon/Microwave/Test 1/CNT-MW - T1 - 120 sec - bottom.txt
300	390.122
306.744	411.784
313.488	404.105
320.232	396.777
326.976	399.929
333.72	397.641
340.465	397.007
347.209	384.839
353.953	393.5
360.697	390.459
367.441	372.573
374.185	374.675
380.929	368.95
387.673	369.574
394.417	366.878
401.161	370.748
407.906	363.048
414.65	356.399
421.394	364.78
428.138	357.48
434.882	364.363
441.626	359.32
448.37	350.624
455.114	356.226
461.858	343.172
468.602	340.945
475.347	325.262
482.091	319.727
488.835	317.192
495.579	309.202
502.323	301.77
509.067	299.847
515.811	301.272
522.555	305.535
529.299	302.485
536.043	296.417
542.788	304.548
549.532	304.692
556.276	308.504
563.02	314.356
569.764	320.038
576.508	318.158
583.252	325.223
589.996	325.028
596.74	316.048
603.484	317.246
610.229	312.012
616.973	307.991
623.717	336.131
630.461	323.709
637.205	326.13
643.949	316.81
650.693	344.145
657.437	332.655
664.181	335.246
670.925	349.598
677.67	342.023
684.414	336.359
691.158	335.85
697.902	351.711
704.646	341.89
711.39	350.56
718.134	361.905
724.878	358.909
731.622	373.399
738.366	368.668
745.111	364.862
751.855	369.568
758.599	379.418
765.343	383.909
772.087	387.649
778.831	400.964
785.575	393.663
792.319	385.804
799.063	403.086
805.807	422.954
812.552	416.589
819.296	423.096
826.04	418.798
832.784	434.739
839.528	438.545
846.272	433.552
853.016	427.846
859.76	439.26
866.504	427.908
873.248	404.774
879.992	394.3
886.737	391.794
893.481	385.339
900.225	371.94
906.969	368.539
913.713	380.516
920.457	380.248
927.201	378.811
933.945	374.611
940.689	368.918
947.433	371.262
954.178	384.512
960.922	395.201
967.666	378.877
974.41	387.878
981.154	405.552
987.898	402.418
994.642	407.306
1001.39	432.477
1008.13	433.727
1014.87	454.878
1021.62	466.329
1028.36	476.043
1035.11	497.147
1041.85	506.108
1048.59	524.119
1055.34	543.149
1062.08	548.949
1068.83	560.304
1075.57	568.582
1082.32	573.089
1089.06	598.876
1095.8	604.1
1102.55	629.742
1109.29	645.199
1116.04	653.808
1122.78	676.045
1129.52	705.738
1136.27	710.036
1143.01	738.504
1149.76	773.38
1156.5	801.717
1163.24	805.093
1169.99	818.375
1176.73	870.251
1183.48	844.302
1190.22	872.945
1196.97	923.476
1203.71	930.604
1210.45	936.609
1217.2	989.028
1223.94	1004.74
1230.69	1060.41
1237.43	1120.72
1244.17	1089.86
1250.92	1207.28
1257.66	1256.98
1264.41	1330.99
1271.15	1406.63
1277.89	1502.35
1284.64	1603.6
1291.38	1699.51
1298.13	1794.43
1304.87	1927.19
1311.61	2049.2
1318.36	2205.94
1325.1	2305.88
1331.85	2399.31
1338.59	2423.5
1345.34	2423.39
1352.08	2274.84
1358.82	2244.35
1365.57	2107.81
1372.31	2008.83
1379.06	1872.25
1385.8	1767.2
1392.54	1705.59
1399.29	1599.47
1406.03	1533.5
1412.78	1475.7
1419.52	1432.9
1426.26	1396.37
1433.01	1353.54
1439.75	1329.12
1446.5	1312.37
1453.24	1298.11
1459.98	1274
1466.73	1313.23
1473.47	1312.66
1480.22	1263.41
1486.96	1276.55
1493.71	1317.19
1500.45	1325.46
1507.19	1325.27
1513.94	1359.48
1520.68	1355.69
1527.43	1408.23
1534.17	1466.83
1540.91	1516.7
1547.66	1595.05
1554.4	1751.96
1561.15	1848.51
1567.89	1975.77
1574.63	2116.84
1581.38	2244.29
1588.12	2304.76
1594.87	2324.32
1601.61	2266.51
1608.36	2081.74
1615.1	1833.93
1621.84	1619.36
1628.59	1308.18
1635.33	1128.46
1642.08	951.563
1648.82	807.307
1655.56	724.641
1662.31	622.423
1669.05	559.611
1675.8	493.092
1682.54	440.088
1689.28	420.098
1696.03	406.372
1702.77	374.277
1709.52	358.954
1716.26	339.904
1723	337.187
1729.75	328.689
1736.49	318.083
1743.24	312.794
1749.98	313.375
1756.73	311.092
1763.47	299.181
1770.21	297.346
1776.96	295.499
1783.7	291.407
1790.45	282.84
1797.19	293.106
1803.93	284.453
1810.68	280.925
1817.42	274.878
1824.17	295.721
1830.91	274.195
1837.65	278.55
1844.4	279.893
1851.14	267.841
1857.89	285.168
1864.63	274.351
1871.375	282.84
1878.12	280.286
1884.86	269.057
1891.61	270.252
1898.35	270.505
1905.1	256.286
1911.84	269.44
1918.58	268.964
1925.33	263.079
1932.07	257.794
1938.82	257.369
1945.56	262.722
1952.3	258.452
1959.05	257.527
1965.79	258.981
1972.54	259.779
1979.28	263.634
1986.02	251.357
1992.77	266.563
1999.51	265.735
2006.26	269.828
2013	270.208
2019.75	265.495
2026.49	271.132
2033.23	270.262
2039.98	259.866
2046.72	263.782
2053.47	258.984
2060.21	270.059
2066.95	262.931
2073.7	261.962
2080.44	260.023
2087.19	258.461
2093.93	258.314
2100.67	261.586
2107.42	262.738
2114.16	254.554
2120.91	252.985
2127.65	274.325
2134.4	258.275
2141.14	268.548
2147.88	270.32
2154.63	260.555
2161.37	267.761
2168.12	266.344
2174.86	267.237
2181.6	266.987
2188.35	272.968
2195.09	272.601
2201.84	270.801
2208.58	274.101
2215.32	271.161
2222.07	278.613
2228.81	265.434
2235.56	281.669
2242.3	272.52
2249.04	285.389
2255.79	276.207
2262.53	270.683
2269.28	285.515
2276.02	278.379
2282.77	277.838
2289.51	281.377
2296.25	287.416
2300	294.1