File: Example Data/Raman/CNT - TIM/Raytheon/Microwave/Test 1/CNT-MW - T1 - 060 sec - bottom.txt
300	418.415
306.744	470.076
313.488	458.845
320.232	436.474
326.976	436.852
333.72	444.51
340.465	448.953
347.209	456.882
353.953	438.73
360.697	435.152
367.441	430.945
374.185	427.282
380.929	423.122
387.673	429.921
394.417	412.622
401.161	422.568
407.906	419.095
414.65	423.966
421.394	401.295
428.138	396.692
434.882	412.569
441.626	405.037
448.37	416.094
455.114	392.209
461.858	378.899
468.602	381.689
475.347	369.247
482.091	385.465
488.835	366.083
495.579	358.025
502.323	347.865
509.067	359.969
515.811	351.448
522.555	351.55
529.299	358.606
536.043	343.202
542.788	335.777
549.532	342.862
556.276	350.246
563.02	352.215
569.764	375.956
576.508	353.129
583.252	348.107
589.996	346.36
596.74	362.271
603.484	361.318
610.229	369.964
616.973	372.616
623.717	359.688
630.461	360.916
637.205	380.56
643.949	379.408
650.693	376.576
657.437	386.786
664.181	375.745
670.925	386.731
677.67	381.601
684.414	374.739
691.158	390.2
697.902	383.954
704.646	394.835
711.39	396.903
718.134	407.264
724.878	408.728
731.622	395.7
738.366	400.151
745.111	409.459
751.855	416.241
758.599	420.466
765.343	438.449
772.087	442.446
778.831	438.736
785.575	432.544
792.319	433.089
799.063	444.433
805.807	441.403
812.552	448.867
819.296	459.153
826.04	472.952
832.784	465.645
839.528	467.129
846.272	483.045
853.016	477.18
859.76	456.975
866.504	448.489
873.248	450.409
879.992	441.708
886.737	430.905
893.481	434.883
900.225	425.421
906.969	424.854
913.713	420.09
920.457	404.558
927.201	410.068
933.945	416.551
940.689	421
947.433	420.499
954.178	415.135
960.922	432.424
967.666	419.96
974.41	450.68
981.154	434.125
987.898	440.01
994.642	459.723
1001.39	479.307
1008.13	486.733
1014.87	503.558
1021.62	514.798
1028.36	539.321
1035.11	541.665
1041.85	551.52
1048.59	585.802
1055.34	587.86
1062.08	591.396
1068.83	624.514
1075.57	622.978
1082.32	648.319
1089.06	654.006
1095.8	674.815
1102.55	694.448
1109.29	706.684
1116.04	736.535
1122.78	745.354
1129.52	796.107
1136.27	820.353
1143.01	849.843
1149.76	877.464
1156.5	901.488
1163.24	940.536
1169.99	957.654
1176.73	982.976
1183.48	1025.87
1190.22	1040.44
1196.97	1068.39
1203.71	1096
1210.45	1102.71
1217.2	1151.12
1223.94	1192.77
1230.69	1241.38
1237.43	1291.79
1244.17	1333.89
1250.92	1416.33
1257.66	1445.87
1264.41	1565.57
1271.15	1626.94
1277.89	1718.47
1284.64	1820.03
1291.38	1924.64
1298.13	2062.43
1304.87	2180.9
1311.61	2348.94
1318.36	2480.68
1325.1	2596.51
1331.85	2650.63
1338.59	2701.77
1345.34	2653.87
1352.08	2601.97
1358.82	2498.45
1365.57	2361.1
1372.31	2298.56
1379.06	2156.55
1385.8	2016.76
1392.54	1939.2
1399.29	1844.65
1406.03	1774.03
1412.78	1690.96
1419.52	1643.96
1426.26	1600.08
1433.01	1537.19
1439.75	1565.28
1446.5	1535.03
1453.24	1503.52
1459.98	1470.11
1466.73	1480.97
1473.47	1472.43
1480.22	1453.32
1486.96	1455.84
1493.71	1445.87
1500.45	1469.43
1507.19	1473.53
1513.94	1504.76
1520.68	1494.18
1527.43	1562.12
1534.17	1587.95
1540.91	1654.66
1547.66	1754.32
1554.4	1922.02
1561.15	2047.1
1567.89	2212.27
1574.63	2376.84
1581.38	2540.32
1588.12	2674.86
1594.87	2744.38
1601.61	2653.74
1608.36	2438.29
1615.1	2162.57
1621.84	1835.17
1628.59	1555.91
1635.33	1303.64
1642.08	1122.91
1648.82	973.925
1655.56	845.179
1662.31	744.848
1669.05	652.488
1675.8	584.209
1682.54	527.44
1689.28	490.589
1696.03	458.575
1702.77	450.913
1709.52	428.158
1716.26	409.855
1723	389.558
1729.75	376.26
1736.49	374.578
1743.24	369.517
1749.98	363.817
1756.73	361.127
1763.47	347.683
1770.21	343.027
1776.96	345.118
1783.7	339.029
1790.45	349.74
1797.19	324.789
1803.93	342.664
1810.68	323.691
1817.42	327.953
1824.17	324.613
1830.91	324.685
1837.65	319.195
1844.4	326.46
1851.14	318.937
1857.89	324.727
1864.63	313.971
1871.375	321.568
1878.12	314.187
1884.86	315.101
1891.61	309.721
1898.35	309.562
1905.1	309.634
1911.84	311.59
1918.58	302.879
1925.33	313.014
1932.07	308.504
1938.82	296.162
1945.56	305.101
1952.3	307.629
1959.05	297.447
1965.79	304.087
1972.54	294.952
1979.28	302.209
1986.02	314.938
1992.77	310.357
1999.51	301.814
2006.26	309.896
2013	298.783
2019.75	296.111
2026.49	322.525
2033.23	303.094
2039.98	294.977
2046.72	306.721
2053.47	311.233
2060.21	292.9
2066.95	305.934
2073.7	304.342
2080.44	305.082
2087.19	304.944
2093.93	290.384
2100.67	296.441
2107.42	297.635
2114.16	292.52
2120.91	294.986
2127.65	294.103
2134.4	305.616
2141.14	303.672
2147.88	305.997
2154.63	317.901
2161.37	302.333
2168.12	306.924
2174.86	309.888
2181.6	308.136
2188.35	310.554
2195.09	295.466
2201.84	302.188
2208.58	316.552
2215.32	305.115
2222.07	309.529
2228.81	310.595
2235.56	294.576
2242.3	302.957
2249.04	305.805
2255.79	317.975
2262.53	319.595
2269.28	325.657
2276.02	330.677
2282.77	316.61
2289.51	321.565
2296.25	326.169
2300	329.474