File: Example Data/Raman/CNT - TIM/Raytheon/Microwave/Test 1/CNT-MW - T1 - 060 sec - top.txt
300	445.902
306.744	473.447
313.488	480.286
320.232	471.305
326.976	445.06
333.72	472.526
340.465	443.007
347.209	447.43
353.953	427.783
360.697	454.598
367.441	443.662
374.185	441.523
380.929	427.905
387.673	435.282
394.417	423.453
401.161	420.148
407.906	425.152
414.65	425.361
421.394	416.795
428.138	435.256
434.882	432.595
441.626	415.144
448.37	418.324
455.114	406.69
461.858	403.914
468.602	395.267
475.347	390.524
482.091	393.024
488.835	365.006
495.579	369.095
502.323	346.331
509.067	372.048
515.811	336.911
522.555	360.495
529.299	355.076
536.043	361.048
542.788	362.246
549.532	363.81
556.276	359.444
563.02	364.069
569.764	365.597
576.508	373.204
583.252	386.826
589.996	363.889
596.74	375.425
603.484	380.355
610.229	383.125
616.973	382.056
623.717	367.501
630.461	384.226
637.205	387.987
643.949	379.502
650.693	387.831
657.437	400.26
664.181	398.925
670.925	406.849
677.67	384.733
684.414	418.652
691.158	400.983
697.902	401.072
704.646	411.878
711.39	416.581
718.134	406.327
724.878	414.362
731.622	423.8
738.366	425.095
745.111	456.314
751.855	417.363
758.599	432.529
765.343	438.864
772.087	446.488
778.831	458.359
785.575	449.191
792.319	462.004
799.063	463.689
805.807	473.299
812.552	476.864
819.296	482.176
826.04	487.81
832.784	486.146
839.528	494.435
846.272	516.844
853.016	512.436
859.76	477.959
866.504	482.228
873.248	477.52
879.992	470.478
886.737	453.63
893.481	457.324
900.225	456.419
906.969	441.285
913.713	447.048
920.457	440.326
927.201	453.034
933.945	449.089
940.689	455.548
947.433	456.581
954.178	454.443
960.922	460.371
967.666	467.886
974.41	472.435
981.154	482.016
987.898	480.744
994.642	513.949
1001.39	527.387
1008.13	535.244
1014.87	538.702
1021.62	584.217
1028.36	615.382
1035.11	604.208
1041.85	619.761
1048.59	647.937
1055.34	667.089
1062.08	669.187
1068.83	686.391
1075.57	713.089
1082.32	734.688
1089.06	755.053
1095.8	761.353
1102.55	793.07
1109.29	836.002
1116.04	852.379
1122.78	883.068
1129.52	899.631
1136.27	951.401
1143.01	991.723
1149.76	1017.28
1156.5	1041.61
1163.24	1076.39
1169.99	1094.37
1176.73	1133.47
1183.48	1141.94
1190.22	1170.18
1196.97	1214.61
1203.71	1210.32
1210.45	1248.66
1217.2	1283.25
1223.94	1342.41
1230.69	1388.34
1237.43	1458.5
1244.17	1521.21
1250.92	1572.27
1257.66	1659.69
1264.41	1785.81
1271.15	1832.35
1277.89	1934.55
1284.64	2072.98
1291.38	2200.68
1298.13	2355.87
1304.87	2527.8
1311.61	2690.5
1318.36	2865.38
1325.1	2975.71
1331.85	3118.97
1338.59	3161.45
1345.34	3156.3
1352.08	3102.97
1358.82	2987.42
1365.57	2855.2
1372.31	2703.26
1379.06	2578.71
1385.8	2407
1392.54	2287.63
1399.29	2172.99
1406.03	2054.52
1412.78	1994.93
1419.52	1884.21
1426.26	1865.12
1433.01	1800.65
1439.75	1788.46
1446.5	1770.78
1453.24	1740.11
1459.98	1769.43
1466.73	1710.29
1473.47	1724.8
1480.22	1716.56
1486.96	1725.24
1493.71	1733.41
1500.45	1725.32
1507.19	1759.02
1513.94	1771.57
1520.68	1824.88
1527.43	1848.08
1534.17	1901.62
1540.91	1983.96
1547.66	2108.49
1554.4	2230.02
1561.15	2424.28
1567.89	2564.35
1574.63	2726.95
1581.38	2962.67
1588.12	3071.63
1594.87	3116.31
1601.61	3042.93
1608.36	2811.28
1615.1	2500
1621.84	2163.91
1628.59	1812.49
1635.33	1581.88
1642.08	1343.65
1648.82	1159.65
1655.56	999.8
1662.31	866.836
1669.05	770.101
1675.8	655.991
1682.54	606.377
1689.28	553.716
1696.03	519.266
1702.77	502.689
1709.52	468.933
1716.26	454.942
1723	443.166
1729.75	412.874
1736.49	410.38
1743.24	398.948
1749.98	397.994
1756.73	387.45
1763.47	382.62
1770.21	377.094
1776.96	384.164
1783.7	362.776
1790.45	372.759
1797.19	360.593
1803.93	365.792
1810.68	368.272
1817.42	361.124
1824.17	358.04
1830.91	349.649
1837.65	349.048
1844.4	348.278
1851.14	363.247
1857.89	350.124
1864.63	342.279
1871.375	345.467
1878.12	346.502
1884.86	339.231
1891.61	338.65
1898.35	346.254
1905.1	352.411
1911.84	344.224
1918.58	349.28
1925.33	336.974
1932.07	326.507
1938.82	330.657
1945.56	342.531
1952.3	330.05
1959.05	342.654
1965.79	330.553
1972.54	329.022
1979.28	339.362
1986.02	343.31
1992.77	341.509
1999.51	334.886
2006.26	339.762
2013	335.302
2019.75	337.226
2026.49	348.105
2033.23	340.419
2039.98	343.237
2046.72	341.387
2053.47	345.412
2060.21	338.541
2066.95	342.081
2073.7	342.662
2080.44	342.87
2087.19	342.865
2093.93	333.719
2100.67	339.318
2107.42	338.794
2114.16	340.188
2120.91	348.167
2127.65	325.469
2134.4	349.58
2141.14	339.193
2147.88	341.314
2154.63	348.368
2161.37	356.741
2168.12	348.403
2174.86	352.491
2181.6	349.593
2188.35	343.943
2195.09	342.557
2201.84	355.453
2208.58	346.44
2215.32	360.375
2222.07	359.952
2228.81	352.717
2235.56	366.2
2242.3	351.753
2249.04	368.962
2255.79	355.467
2262.53	356.251
2269.28	357.795
2276.02	364.755
2282.77	371.868
2289.51	363.487
2296.25	375.212
2300	372.913