File: Example Data/Raman/CNT - TIM/Raytheon/Microwave/Test 1/CNT-MW - T1 - 0 sec - bottom.txt
300	328.898
306.744	355.421
313.488	350.976
320.232	349.732
326.976	324.315
333.72	329.998
340.465	339.025
347.209	343.058
353.953	348.852
360.697	333.291
367.441	329.923
374.185	323.848
380.929	314.464
387.673	318.708
394.417	326.856
401.161	320.326
407.906	303.418
414.65	316.403
421.394	320.732
428.138	308.502
434.882	297.935
441.626	313.451
448.37	305.604
455.114	294.858
461.858	280.43
468.602	293.567
475.347	283.837
482.091	282.564
488.835	253.167
495.579	265.874
502.323	260.737
509.067	251.813
515.811	259.882
522.555	258.26
529.299	254.644
536.043	262.561
542.788	261.193
549.532	266.366
556.276	261.576
563.02	263.75
569.764	264.05
576.508	270.643
583.252	274.269
589.996	267.723
596.74	269.604
603.484	277.901
610.229	278.661
616.973	270.139
623.717	282.616
630.461	280.716
637.205	291.604
643.949	288.842
650.693	295.617
657.437	297.357
664.181	291.487
670.925	292.509
677.67	295.606
684.414	288.457
691.158	293.501
697.902	304.316
704.646	287.872
711.39	303.225
718.134	308.736
724.878	310.779
731.622	311.309
738.366	319.758
745.111	321.743
751.855	335.044
758.599	338.096
765.343	340.182
772.087	332.924
778.831	336.144
785.575	346.293
792.319	374.953
799.063	357.103
805.807	375.632
812.552	370.27
819.296	371.063
826.04	374.548
832.784	382.663
839.528	370.386
846.272	371.198
853.016	386.64
859.76	378.395
866.504	365.116
873.248	357.613
879.992	346.342
886.737	337.729
893.481	347.104
900.225	336.765
906.969	328.335
913.713	323.311
920.457	322.854
927.201	316.594
933.945	319.963
940.689	310.884
947.433	331.888
954.178	325.331
960.922	324.176
967.666	335.397
974.41	340.085
981.154	329.71
987.898	363.231
994.642	366.321
1001.39	377.806
1008.13	383.625
1014.87	384.866
1021.62	406.436
1028.36	420.533
1035.11	439.335
1041.85	438.131
1048.59	456.541
1055.34	456.135
1062.08	486.746
1068.83	486.01
1075.57	500.709
1082.32	525.275
1089.06	536.848
1095.8	544.97
1102.55	568.796
1109.29	579.876
1116.04	606.516
1122.78	615.985
1129.52	654.127
1136.27	693.294
1143.01	745.048
1149.76	765.425
1156.5	777.219
1163.24	788.887
1169.99	823.332
1176.73	835.611
1183.48	850.813
1190.22	862.723
1196.97	886.674
1203.71	908.531
1210.45	942.598
1217.2	962.548
1223.94	987.626
1230.69	1038.28
1237.43	1085.28
1244.17	1126.6
1250.92	1194.07
1257.66	1240.37
1264.41	1332.4
1271.15	1442.26
1277.89	1475.87
1284.64	1600.43
1291.38	1700.95
1298.13	1837.63
1304.87	1936.83
1311.61	2075.92
1318.36	2225.52
1325.1	2291.42
1331.85	2380.81
1338.59	2443.61
1345.34	2396.89
1352.08	2335.09
1358.82	2287.52
1365.57	2161.91
1372.31	2022.55
1379.06	1956.93
1385.8	1852.29
1392.54	1716.24
1399.29	1620.82
1406.03	1541.71
1412.78	1470.98
1419.52	1434.62
1426.26	1381.69
1433.01	1327.41
1439.75	1340.32
1446.5	1303.24
1453.24	1286.09
1459.98	1242.54
1466.73	1262.37
1473.47	1241.47
1480.22	1255.45
1486.96	1269.93
1493.71	1275.04
1500.45	1258.11
1507.19	1256.15
1513.94	1260.6
1520.68	1260.62
1527.43	1319.74
1534.17	1359.53
1540.91	1415
1547.66	1490.43
1554.4	1601.3
1561.15	1718.31
1567.89	1857.83
1574.63	2042.41
1581.38	2220.94
1588.12	2339.05
1594.87	2425.26
1601.61	2442.47
1608.36	2270.3
1615.1	2027.87
1621.84	1670.07
1628.59	1386.2
1635.33	1180.82
1642.08	1008.06
1648.82	885.18
1655.56	729.37
1662.31	613.556
1669.05	548.803
1675.8	477.381
1682.54	429.466
1689.28	380.696
1696.03	349.209
1702.77	324.869
1709.52	319.288
1716.26	294.762
1723	283.091
1729.75	271.528
1736.49	268.856
1743.24	264.261
1749.98	252.64
1756.73	247.751
1763.47	247.116
1770.21	247.14
1776.96	236.691
1783.7	239.458
1790.45	228.639
1797.19	227.65
1803.93	236.893
1810.68	227.921
1817.42	221.9
1824.17	221.039
1830.91	218.371
1837.65	222.829
1844.4	220.528
1851.14	231.51
1857.89	227.496
1864.63	218.643
1871.375	225.476
1878.12	220.587
1884.86	217.131
1891.61	213.316
1898.35	223.936
1905.1	214.287
1911.84	221.978
1918.58	213.254
1925.33	210.969
1932.07	218.841
1938.82	217.421
1945.56	213.536
1952.3	207.763
1959.05	218.154
1965.79	216.736
1972.54	222.274
1979.28	219.537
1986.02	222.57
1992.77	218.468
1999.51	222.655
2006.26	214.419
2013	223.504
2019.75	212.484
2026.49	225.394
2033.23	213.696
2039.98	212.02
2046.72	226.759
2053.47	210.424
2060.21	209.479
2066.95	218.958
2073.7	215.968
2080.44	220.664
2087.19	211.864
2093.93	216.833
2100.67	212.159
2107.42	218.807
2114.16	218.157
2120.91	215.9
2127.65	214.316
2134.4	209.108
2141.14	209.878
2147.88	215.4
2154.63	215.068
2161.37	216.81
2168.12	225.538
2174.86	216.047
2181.6	225.166
2188.35	220.02
2195.09	220.799
2201.84	226.408
2208.58	221.02
2215.32	228.239
2222.07	220.654
2228.81	223.341
2235.56	225.163
2242.3	233.692
2249.04	237.436
2255.79	231.087
2262.53	231.266
2269.28	241.41
2276.02	231.361
2282.77	238.024
2289.51	234.005
2296.25	232.235
2300	250.316