File: Example Data/Raman/CNT - TIM/Raytheon/Microwave/Test 1/CNT-MW - T1 - 030 sec - top.txt
300	346.274
306.744	369.573
313.488	366.786
320.232	355.781
326.976	368.238
333.72	344.254
340.465	353.945
347.209	356.061
353.953	341.175
360.697	344.028
367.441	343.366
374.185	337.688
380.929	338.989
387.673	327.861
394.417	330.136
401.161	330.956
407.906	321.964
414.65	323.221
421.394	326.218
428.138	325.149
434.882	314.949
441.626	320.993
448.37	310.791
455.114	300.55
461.858	306.437
468.602	294.87
475.347	298.753
482.091	294.744
488.835	269.167
495.579	281.303
502.323	268.725
509.067	274.887
515.811	280.077
522.555	262.705
529.299	267.029
536.043	278.199
542.788	265.644
549.532	279.004
556.276	265.069
563.02	278.358
569.764	269.441
576.508	268.19
583.252	287.463
589.996	282.722
596.74	277.879
603.484	286.517
610.229	283.307
616.973	285.397
623.717	292.645
630.461	301.36
637.205	291.878
643.949	305.408
650.693	298.688
657.437	305.18
664.181	301.578
670.925	311.596
677.67	302.756
684.414	312.381
691.158	301.317
697.902	307.276
704.646	302.835
711.39	316.661
718.134	335.096
724.878	334.67
731.622	328.949
738.366	337.188
745.111	337.874
751.855	352.119
758.599	354.835
765.343	356.324
772.087	363.329
778.831	363.12
785.575	354.663
792.319	364.19
799.063	366.865
805.807	369.575
812.552	375.383
819.296	381.364
826.04	393
832.784	377.683
839.528	380.638
846.272	387.339
853.016	393.509
859.76	389.46
866.504	376.594
873.248	355.344
879.992	355.122
886.737	349.06
893.481	343.26
900.225	342.699
906.969	337.55
913.713	340.03
920.457	345.727
927.201	324.186
933.945	326.615
940.689	332.824
947.433	337.9
954.178	327.751
960.922	339.012
967.666	336.984
974.41	350.905
981.154	349.387
987.898	378.308
994.642	371.606
1001.39	397.747
1008.13	393.813
1014.87	405.317
1021.62	415.176
1028.36	434.976
1035.11	439.457
1041.85	472.186
1048.59	473.105
1055.34	478.27
1062.08	483.781
1068.83	485.326
1075.57	508.069
1082.32	524.289
1089.06	528.329
1095.8	535.032
1102.55	554.207
1109.29	573.971
1116.04	591.024
1122.78	579.287
1129.52	613.73
1136.27	628.672
1143.01	650.643
1149.76	666.278
1156.5	703.318
1163.24	711.619
1169.99	732.714
1176.73	748.23
1183.48	743.157
1190.22	777.574
1196.97	784.624
1203.71	804.016
1210.45	819.574
1217.2	866.689
1223.94	889.19
1230.69	919.64
1237.43	959.774
1244.17	995.05
1250.92	1053.66
1257.66	1107.75
1264.41	1159.16
1271.15	1224.84
1277.89	1290.14
1284.64	1385.91
1291.38	1466.67
1298.13	1570.6
1304.87	1669.83
1311.61	1800.62
1318.36	1927.01
1325.1	2007.55
1331.85	2120.99
1338.59	2159.12
1345.34	2139.45
1352.08	2046.77
1358.82	1991.3
1365.57	1917.34
1372.31	1815.54
1379.06	1700.49
1385.8	1596.14
1392.54	1523.73
1399.29	1445.25
1406.03	1340.89
1412.78	1320.78
1419.52	1266.02
1426.26	1248.22
1433.01	1198.36
1439.75	1177.75
1446.5	1179.57
1453.24	1181.34
1459.98	1164.23
1466.73	1134.79
1473.47	1148.41
1480.22	1162.07
1486.96	1146.46
1493.71	1152.32
1500.45	1175.56
1507.19	1156.48
1513.94	1193.39
1520.68	1185.85
1527.43	1269.96
1534.17	1276.73
1540.91	1367.25
1547.66	1430.84
1554.4	1568.74
1561.15	1655.49
1567.89	1756.72
1574.63	1913.69
1581.38	1999.89
1588.12	2041.34
1594.87	2039.08
1601.61	1970.84
1608.36	1811.37
1615.1	1630.86
1621.84	1399.07
1628.59	1200.12
1635.33	1003.85
1642.08	863.091
1648.82	757.218
1655.56	637.403
1662.31	553.341
1669.05	494.831
1675.8	439.237
1682.54	392.839
1689.28	368.465
1696.03	337.417
1702.77	319.883
1709.52	305.968
1716.26	291.159
1723	280.049
1729.75	273.968
1736.49	266.32
1743.24	263.355
1749.98	261.079
1756.73	257.202
1763.47	239.915
1770.21	255.532
1776.96	242.058
1783.7	251.693
1790.45	247.739
1797.19	230.09
1803.93	232.742
1810.68	238.93
1817.42	233.145
1824.17	231.676
1830.91	228.182
1837.65	225.858
1844.4	224.848
1851.14	228.607
1857.89	230.234
1864.63	219.068
1871.375	226.556
1878.12	220.611
1884.86	218.169
1891.61	231.749
1898.35	225.06
1905.1	216.427
1911.84	218.932
1918.58	216.791
1925.33	215.676
1932.07	213.42
1938.82	217.839
1945.56	208.732
1952.3	221.37
1959.05	211.665
1965.79	214.425
1972.54	218.448
1979.28	225.328
1986.02	225.327
1992.77	216.85
1999.51	223.133
2006.26	219.69
2013	228.849
2019.75	225.566
2026.49	226.425
2033.23	219.289
2039.98	223.859
2046.72	215.422
2053.47	227.202
2060.21	215.762
2066.95	221.799
2073.7	217.076
2080.44	225.265
2087.19	216.099
2093.93	219.625
2100.67	223.601
2107.42	213.921
2114.16	209.106
2120.91	212.472
2127.65	215.668
2134.4	223.436
2141.14	219.838
2147.88	220.195
2154.63	221.107
2161.37	226.142
2168.12	229.618
2174.86	225.358
2181.6	223.767
2188.35	219.746
2195.09	231.072
2201.84	223.164
2208.58	220.965
2215.32	219.89
2222.07	226.604
2228.81	225.837
2235.56	233.988
2242.3	229.706
2249.04	241.044
2255.79	236.395
2262.53	228.713
2269.28	236.711
2276.02	230.117
2282.77	244.334
2289.51	239.705
2296.25	235.818
2300	230.113