File: Example Data/Raman/Kara/12-20-10/Si-Graphene/3bulk/SGbulk_1.txt
400	19.3231
412.576	21.9215
425.152	18.8454
437.729	20.4192
450.305	17.9142
462.881	15.5418
475.457	19.1108
488.034	28.5819
500.61	10.2353
513.186	18.7811
525.762	11.973
538.338	12.0834
550.915	13.6711
563.491	9.96706
576.067	15.765
588.643	10.4007
601.219	12.3414
613.796	15.6588
626.372	9.91785
638.948	14.2013
651.524	16.0745
664.101	11.9835
676.677	19.334
689.253	15.9851
701.829	16.074
714.406	18.7473
726.982	16.8239
739.558	24.6829
752.134	23.5664
764.71	22.4924
777.287	33.7474
789.863	28.6706
802.439	29.3254
815.015	29.6108
827.591	32.9458
840.168	33.9591
852.744	37.3049
865.32	35.3516
877.896	32.3065
890.473	26.1443
903.049	21.772
915.625	16.6396
928.201	14.8454
940.777	10.636
953.354	13.248
965.93	12.1268
978.506	10.0564
991.082	10.9652
1003.66	8.64115
1016.23	10.8115
1028.81	13.563
1041.39	9.47709
1053.96	6.45815
1066.54	10.8583
1079.12	2.87419
1091.69	3.99676
1104.27	-1.11364
1116.84	-0.0394809
1129.42	-5.74774
1142	0.657819
1154.57	-2.8
1167.15	-3.11807
1179.73	-2.75464
1192.3	-0.904582
1204.88	-5.49061
1217.45	-4.54098
1230.03	-3.84128
1242.61	-5.19788
1255.18	-4.48736
1267.76	-8.15306
1280.34	-7.45111
1292.91	-5.09059
1305.49	-4.4433
1318.06	-3.92276
1330.64	-2.45787
1343.22	-6.21348
1355.79	-6.2736
1368.37	-2.68191
1380.95	-3.731
1393.52	-3.8731
1406.1	-7.25154
1418.67	-4.86176
1431.25	-7.35291
1443.83	-6.81772
1456.4	-2.04008
1468.98	-2.14729
1481.55	-3.50162
1494.13	-7.57822
1506.71	-1.85967
1519.28	-3.51677
1531.86	0.201324
1544.44	-3.43159
1557.01	-3.78408
1569.59	-0.662417
1582.16	-3.97046
1594.74	-5.45868
1607.32	-4.46092
1619.89	-3.40285
1632.47	-4.96817
1645.05	-4.8283
1657.62	-4.01838
1670.2	-1.67634
1682.77	-7.7692
1695.35	-8.31324
1707.93	-1.82164
1720.5	-5.38553
1733.08	-4.89705
1745.66	-3.9511
1758.23	-4.53289
1770.81	-1.567
1783.38	-3.63678
1795.96	-1.09397
1808.54	-3.33183
1821.11	-3.78911
1833.69	-2.47638
1846.27	-4.13398
1858.84	-1.70752
1871.42	-1.91072
1883.99	-3.68242
1896.57	-2.34203
1909.15	-0.840281
1921.72	-4.71934
1934.3	-2.59242
1946.875	-1.01587
1959.45	-4.4055
1972.03	-0.343073
1984.6	-4.3134
1997.18	-1.6337
2009.76	-3.0631
2022.33	0.672178
2034.91	-0.608767
2047.48	1.46564
2060.06	-2.00309
2072.64	-1.27333
2085.21	1.10838
2097.79	0.254884
2110.37	3.35219
2122.94	2.07192
2135.52	2.76691
2148.09	-0.733895
2160.67	0.0539596
2173.25	-2.61811
2185.82	-2.19083
2198.4	-1.19648
2210.98	1.25668
2223.55	-0.881083
2236.13	0.392536
2248.7	1.47719
2261.28	0.204008
2273.86	0.975794
2286.43	0.00522427
2299.01	2.05112
2311.59	2.89171
2324.16	2.75983
2336.74	5.82706
2349.31	3.98999
2361.89	1.50962
2374.47	6.38243
2387.04	6.75662
2399.62	4.81214
2412.2	6.80668
2424.77	14.1323
2437.35	19.3028
2449.92	20.0928
2462.5	11.3052
2475.08	9.85194
2487.65	11.0282
2500.23	8.20895
2512.8	6.75268
2525.38	11.2797
2537.96	9.44611
2550.53	10.5474
2563.11	10.8907
2575.69	12.2516
2588.26	7.78957
2600.84	9.55038
2613.41	8.01413
2625.99	10.2245
2638.57	9.45364
2651.14	8.17301
2663.72	9.94251
2676.3	11.1539
2688.87	12.0352
2701.45	10.0552
2714.02	10.9696
2726.6	13.5785
2739.18	12.2236
2751.75	12.6477
2764.33	12.0543
2776.91	11.3219
2789.48	11.9199
2802.06	12.9815
2814.63	13.7524
2827.21	10.9014
2839.79	14.5096
2852.36	16.0665
2864.94	13.6463
2877.52	12.9131
2890.09	13.2623
2902.67	11.635
2915.24	15.4965
2927.82	14.7539
2940.4	16.351
2952.97	16.55
2965.55	17.398
2978.125	16.4198
2990.7	15.0625
3003.28	15.5302
3015.85	16.3253
3028.43	15.0538
3041.01	16.4306
3053.58	17.9765
3066.16	17.7029
3078.73	13.1131
3091.31	19.281
3103.89	16.6616
3116.46	16.0158
3129.04	15.9697
3141.62	15.8236
3154.19	20.3316
3166.77	17.181
3179.34	16.545
3191.92	19.4945
3204.5	17.1663
3217.07	210.412
3229.65	19.7896
3242.23	24.7303
3254.8	20.8156
3267.38	19.9528
3279.95	20.6968
3292.53	20.3756
3305.11	20.392
3317.68	21.4362
3330.26	20.0411
3342.84	21.8148
3355.41	23.6832
3367.99	20.3044
3380.56	21.3135
3393.14	22.673
3405.72	23.6095
3418.29	21.6371
3430.87	21.3311
3443.45	20.598
3456.02	23.0699
3468.6	25.6451
3481.17	22.4969
3493.75	27.9463
3506.33	22.7454
3518.9	23.8196
3531.48	24.589
3544.05	23.8396
3556.63	20.5446
3569.21	24.833
3581.78	22.1087
3594.36	29.7941
3606.94	27.3141
3619.51	27.6046
3632.09	23.2041
3644.66	21.5361
3657.24	33.8505
3669.82	35.954
3682.39	23.7704
3694.97	26.6405
3700	28.5978