File: Example Data/Raman/Kara/12-20-10/Si-Graphene/3bulk/SGbulk_2.txt
400	124.753
412.576	151.118
425.152	193.234
437.729	214.274
450.305	231.886
462.881	264.31
475.457	322.238
488.034	453.422
500.61	797.059
513.186	1125.57
525.762	287.512
538.338	150.4
550.915	101.142
563.491	87.1952
576.067	81.8058
588.643	89.3318
601.219	94.2068
613.796	99.1178
626.372	85.3693
638.948	86.3665
651.524	81.2285
664.101	90.5996
676.677	75.1613
689.253	72.6437
701.829	74.32
714.406	67.8295
726.982	75.4248
739.558	79.1287
752.134	85.2207
764.71	87.9666
777.287	89.7143
789.863	82.9034
802.439	96.2817
815.015	88.6667
827.591	101.817
840.168	85.7545
852.744	98.0108
865.32	106.446
877.896	90.8168
890.473	115.124
903.049	128.161
915.625	135.28
928.201	128.439
940.777	132.724
953.354	114.304
965.93	95.219
978.506	83.0013
991.082	73.8662
1003.66	60.122
1016.23	53.0811
1028.81	47.9833
1041.39	46.803
1053.96	49.1234
1066.54	38.9966
1079.12	43.312
1091.69	37.8065
1104.27	35.5097
1116.84	35.5193
1129.42	36.8084
1142	37.8348
1154.57	35.9998
1167.15	34.4308
1179.73	36.4138
1192.3	35.2652
1204.88	36.2453
1217.45	39.3295
1230.03	41.6963
1242.61	41.4042
1255.18	43.7458
1267.76	51.2726
1280.34	41.1318
1292.91	45.4181
1305.49	57.8053
1318.06	57.1883
1330.64	67.5645
1343.22	54.4378
1355.79	68.8223
1368.37	68.3614
1380.95	60.731
1393.52	57.1076
1406.1	55.7133
1418.67	50.9444
1431.25	45.659
1443.83	48.5346
1456.4	53.18
1468.98	53.4132
1481.55	46.8919
1494.13	51.2435
1506.71	52.8253
1519.28	49.5168
1531.86	56.0684
1544.44	60.2403
1557.01	59.4232
1569.59	69.627
1582.16	72.7788
1594.74	58.8419
1607.32	58.4695
1619.89	56.875
1632.47	54.7483
1645.05	47.7998
1657.62	43.2525
1670.2	51.4741
1682.77	47.3154
1695.35	45.2749
1707.93	42.7891
1720.5	45.7349
1733.08	45.8
1745.66	44.156
1758.23	42.8306
1770.81	49.3883
1783.38	46.1233
1795.96	51.5213
1808.54	48.3556
1821.11	53.6686
1833.69	58.3403
1846.27	54.533
1858.84	54.9622
1871.42	53.2106
1883.99	54.4188
1896.57	49.9917
1909.15	61.5079
1921.72	46.6072
1934.3	56.7773
1946.875	57.6635
1959.45	56.7991
1972.03	58.7985
1984.6	59.5717
1997.18	57.8598
2009.76	60.6317
2022.33	60.8479
2034.91	53.6893
2047.48	62.9924
2060.06	60.6413
2072.64	64.682
2085.21	65.0496
2097.79	61.8084
2110.37	68.9542
2122.94	64.1127
2135.52	69.9929
2148.09	69.501
2160.67	71.5254
2173.25	75.3837
2185.82	78.9732
2198.4	78.8811
2210.98	79.15
2223.55	74.4292
2236.13	73.579
2248.7	79.0331
2261.28	82.9516
2273.86	80.7748
2286.43	91.6153
2299.01	87.0561
2311.59	83.58
2324.16	95.384
2336.74	96.058
2349.31	94.7259
2361.89	95.5102
2374.47	98.8859
2387.04	98.0293
2399.62	101.313
2412.2	108.646
2424.77	109.353
2437.35	122.904
2449.92	130.535
2462.5	118.619
2475.08	120.254
2487.65	114.053
2500.23	119.692
2512.8	122.686
2525.38	120.236
2537.96	127.546
2550.53	122.674
2563.11	131.194
2575.69	129.807
2588.26	130.909
2600.84	130.479
2613.41	132.247
2625.99	138.538
2638.57	134.042
2651.14	136.891
2663.72	143.024
2676.3	147.886
2688.87	151.951
2701.45	149.057
2714.02	152.28
2726.6	159.245
2739.18	159.248
2751.75	168.215
2764.33	159.607
2776.91	164.701
2789.48	167.243
2802.06	174.092
2814.63	169.463
2827.21	176.001
2839.79	173.695
2852.36	188.694
2864.94	186.555
2877.52	187.209
2890.09	187.142
2902.67	200.087
2915.24	197.856
2927.82	202.909
2940.4	209.344
2952.97	210.053
2965.55	207.401
2978.125	211.567
2990.7	214.161
3003.28	210.112
3015.85	216.229
3028.43	218.85
3041.01	226.918
3053.58	239.707
3066.16	243.599
3078.73	231.151
3091.31	243.73
3103.89	239.428
3116.46	246.679
3129.04	251.75
3141.62	251.148
3154.19	259.716
3166.77	259.119
3179.34	268.282
3191.92	272.449
3204.5	278.765
3217.07	283.277
3229.65	299.49
3242.23	290.6
3254.8	292.046
3267.38	304.622
3279.95	308.259
3292.53	313.165
3305.11	312.912
3317.68	321.473
3330.26	326.989
3342.84	330.73
3355.41	333.23
3367.99	338.491
3380.56	349.79
3393.14	343.361
3405.72	346.179
3418.29	373.544
3430.87	369.565
3443.45	368.397
3456.02	380.38
3468.6	378.562
3481.17	389.832
3493.75	391.286
3506.33	400.348
3518.9	401.231
3531.48	414.414
3544.05	416.08
3556.63	422.721
3569.21	432.458
3581.78	436.766
3594.36	443.795
3606.94	457.443
3619.51	458.578
3632.09	468.214
3644.66	468.629
3657.24	451.203
3669.82	493.249
3682.39	496.941
3694.97	490.257
3700	493.618