File: Example Data/Raman/CNT - TIM/Raytheon/Al foil/2010/03-29-10/Al - 03-29-10 - B4_1.txt
100	67.4911
110.002	59.0022
120.005	51.6278
130.007	48.1609
140.01	48.8273
150.012	40.5099
160.015	45.4087
170.017	50.4768
180.02	50.3353
190.022	39.2442
200.025	43.1227
210.027	41.3451
220.03	44.4906
230.032	39.9197
240.034	43.3536
250.037	44.3347
260.039	40.293
270.042	41.7048
280.044	44.9716
290.047	39.1457
300.049	37.378
310.052	41.7014
320.054	41.6918
330.057	39.2686
340.059	35.7077
350.062	39.1953
360.064	38.3687
370.067	42.0707
380.069	32.3514
390.071	32.8143
400.074	38.0523
410.076	30.9448
420.079	34.6558
430.081	34.526
440.084	30.6596
450.086	30.3258
460.089	32.8445
470.091	32.5303
480.094	34.4459
490.096	31.7048
500.099	26.6667
510.101	26.6755
520.103	33.2004
530.106	23.4331
540.108	32.3875
550.111	22.3282
560.113	28.4981
570.116	27.9391
580.118	32.0448
590.121	24.4828
600.123	26.2526
610.126	34.4456
620.128	30.1382
630.131	31.731
640.133	31.891
650.135	35.5539
660.138	36.6065
670.14	38.9412
680.143	32.0809
690.145	40.7345
700.148	37.2674
710.15	36.9694
720.153	36.9198
730.155	44.6669
740.158	39.3333
750.16	42.7132
760.163	41.0647
770.165	43.3774
780.168	44.1146
790.17	45.2226
800.172	43.3562
810.175	48.8073
820.177	46.8009
830.18	47.2187
840.182	45.0536
850.185	45.8726
860.187	42.8156
870.19	43.938
880.192	40.1371
890.195	38.9621
900.197	34.8771
910.2	35.4399
920.202	33.5839
930.204	33.4448
940.207	34.7869
950.209	33.1677
960.212	33.326
970.214	31.1295
980.217	31.3228
990.219	38.5324
1000.22	36.4853
1010.22	31.3943
1020.23	42.1312
1030.23	40.697
1040.23	40
1050.23	45.5415
1060.24	40.7755
1070.24	39.5419
1080.24	40.567
1090.24	47.9049
1100.25	45.4188
1110.25	43.9324
1120.25	56.7568
1130.25	55.6667
1140.26	54.7101
1150.26	62.984
1160.26	60.2096
1170.26	62.0846
1180.27	64.7355
1190.27	72.8369
1200.27	71.196
1210.27	65.9124
1220.28	74.1724
1230.28	78.6627
1240.28	86.5713
1250.28	86.2466
1260.29	90.6667
1270.29	96.9925
1280.29	109.545
1290.29	119.333
1300.3	127.564
1310.3	134.326
1320.3	159.018
1330.3	154.393
1340.31	168.281
1350.31	160.372
1360.31	156.593
1370.31	153.91
1380.32	145.464
1390.32	129.319
1400.32	121.919
1410.32	119.086
1420.33	109.061
1430.33	107.893
1440.33	105.373
1450.33	99.5704
1460.34	89.0152
1470.34	99.695
1480.34	94.3398
1490.34	92.253
1500.34	94.5828
1510.35	107.718
1520.35	89.6153
1530.35	97.3328
1540.35	99.236
1550.36	104.268
1560.36	123.154
1570.36	133.182
1580.36	150.735
1590.37	165.554
1600.37	172.682
1610.37	160.762
1620.37	138.144
1630.38	103.563
1640.38	81.3291
1650.38	66.6788
1660.38	55.6838
1670.39	42.791
1680.39	38.3841
1690.39	25.7359
1700.39	22.9448
1710.4	23.6068
1720.4	28.3437
1730.4	18.5772
1740.4	20.1628
1750.41	22.0648
1760.41	26.4149
1770.41	25.831
1780.41	21.8311
1790.42	16.9676
1800.42	18.667
1810.42	19.391
1820.42	18.2915
1830.43	18.6667
1840.43	17.437
1850.43	21.0583
1860.43	19.2862
1870.44	19.7607
1880.44	15.9484
1890.44	18.3803
1900.44	17.0772
1910.45	21.3422
1920.45	19.7934
1930.45	20.0275
1940.45	14.0258
1950.46	21.9018
1960.46	16.0101
1970.46	14.5742
1980.46	17.7796
1990.47	20.1499
2000.47	18.6003
2010.47	19.2352
2020.47	16.7776
2030.48	18.0938
2040.48	19.0121
2050.48	15.1174
2060.48	16.9025
2070.49	21.8724
2080.49	21.009
2090.49	18.8957
2100.49	18.718
2110.5	20.1683
2120.5	22.1672
2130.5	16.7627
2140.5	23.9692
2150.51	17.2945
2160.51	19.5834
2170.51	13.8987
2180.51	21.7202
2190.51	16.6753
2200.52	18.9194
2210.52	19.3989
2220.52	18.5647
2230.52	18.1858
2240.53	15.9538
2250.53	19.8116
2260.53	17.72
2270.53	18.2401
2280.54	21.467
2290.54	18.1639
2300.54	23.5652
2310.54	20.4328
2320.55	26.1012
2330.55	32.5459
2340.55	21.4477
2350.55	21.4977
2360.56	20.3243
2370.56	20.8953
2380.56	23.609
2390.56	28.2344
2400.57	21.4452
2410.57	25.0875
2420.57	26.7773
2430.57	30.7582
2440.58	27.7693
2450.58	24.6008
2460.58	23.821
2470.58	22.6482
2480.59	31.9458
2490.59	29.8322
2500.59	28.5939
2510.59	27.0088
2520.6	27.9124
2530.6	25.3209
2540.6	34.0691
2550.6	27.462
2560.61	39.6103
2570.61	31.0711
2580.61	29.8906
2590.61	30.19
2600.62	33.2088
2610.62	36.1991
2620.62	35.6399
2630.62	29.193
2640.63	35.4241
2650.63	36.6098
2660.63	38.1715
2670.63	37.0669
2680.64	36.7248
2690.64	32.7416
2700.64	35.8351
2710.64	31.3934
2720.65	35.1567
2730.65	35.4052
2740.65	30.342
2750.65	36.3414
2760.66	35.2376
2770.66	32.5922
2780.66	32.009
2790.66	31.241
2800.67	36.9816
2810.67	33.5069
2820.67	32.7665
2830.67	36.0923
2840.68	36.9845
2850.68	33.2531
2860.68	30.5402
2870.68	34.3099
2880.68	39.6613
2890.69	33.9002
2900.69	32.547
2910.69	32.3556
2920.69	35.0729
2930.7	38.3834
2940.7	40.5048
2950.7	32.8599
2960.7	31.4452
2970.71	33.3333
2980.71	37.3335
2990.71	33.24
3000	31.0124