File: Example Data/Raman/CNT - TIM/Raytheon/Al foil/2010/03-29-10/Al - 03-29-10 - B3_4.txt
100	63.9484
110.002	84.8426
120.005	71.3094
130.007	62.3635
140.01	65.1559
150.012	59.2361
160.015	50.6349
170.017	51.9825
180.02	53.2566
190.022	53.1617
200.025	52.6564
210.027	48.8279
220.03	53.8428
230.032	53.7156
240.034	51.3739
250.037	54.6651
260.039	50.1555
270.042	55.8668
280.044	54.7727
290.047	52.2225
300.049	51.7467
310.052	49.6225
320.054	51.3584
330.057	51.3333
340.059	54.1553
350.062	53.5628
360.064	50.3407
370.067	48.0542
380.069	44.8949
390.071	44.655
400.074	49.9297
410.076	42.0253
420.079	42.9674
430.081	48.3526
440.084	45.8533
450.086	44.8618
460.089	39.8565
470.091	41.3333
480.094	39.975
490.096	37.0636
500.099	37.3105
510.101	35.7624
520.103	38.5991
530.106	41.9378
540.108	43.1678
550.111	27.6096
560.113	42.2592
570.116	40.0246
580.118	39.2949
590.121	41.7456
600.123	40.6055
610.126	44.7179
620.128	34.7235
630.131	36.269
640.133	46.1709
650.135	41.9783
660.138	51.6876
670.14	47.0504
680.143	44.6824
690.145	46.531
700.148	45.9035
710.15	49.034
720.153	46.065
730.155	54.5016
740.158	52.8274
750.16	50.8411
760.163	48.3398
770.165	54.2426
780.168	46.74
790.17	62.2947
800.172	59.4784
810.175	62.1792
820.177	61.2618
830.18	57.3437
840.182	56.6407
850.185	63.4944
860.187	61.8724
870.19	53.7417
880.192	51.4189
890.195	50.6079
900.197	46.7234
910.2	52.5725
920.202	46.4399
930.204	47.392
940.207	47.1915
950.209	46.8057
960.212	47.438
970.214	40.7521
980.217	55.2389
990.219	52.4653
1000.22	52.1933
1010.22	52.3275
1020.23	58.4232
1030.23	57.0692
1040.23	64.9849
1050.23	61.9422
1060.24	62.705
1070.24	67.6449
1080.24	69.3314
1090.24	75.8189
1100.25	75.3932
1110.25	75.331
1120.25	85.2711
1130.25	87.6713
1140.26	93.673
1150.26	110.294
1160.26	115.387
1170.26	123.665
1180.27	120.556
1190.27	121.887
1200.27	126.211
1210.27	142.062
1220.28	150.699
1230.28	149.199
1240.28	160.524
1250.28	179.834
1260.29	181.862
1270.29	201.341
1280.29	225.529
1290.29	247.514
1300.3	286.948
1310.3	298.324
1320.3	348.86
1330.3	375.651
1340.31	388.928
1350.31	389.353
1360.31	376.565
1370.31	345.63
1380.32	300.427
1390.32	282.759
1400.32	256.705
1410.32	236.446
1420.33	217.606
1430.33	215.81
1440.33	189.59
1450.33	197.311
1460.34	191.274
1470.34	195.56
1480.34	190.843
1490.34	184.723
1500.34	186.667
1510.35	187.488
1520.35	199.287
1530.35	197.859
1540.35	215.32
1550.36	221.448
1560.36	248.09
1570.36	288.673
1580.36	328.827
1590.37	365.35
1600.37	416.251
1610.37	391.081
1620.37	333.518
1630.38	244.669
1640.38	192.801
1650.38	138.183
1660.38	100.403
1670.39	85.8508
1680.39	69.8226
1690.39	55.5031
1700.39	43.7064
1710.4	43.6059
1720.4	35.0396
1730.4	38.6111
1740.4	41.2759
1750.41	34.9838
1760.41	37.2434
1770.41	35.7042
1780.41	30.4891
1790.42	29.2861
1800.42	30.6663
1810.42	30.8583
1820.42	29.6189
1830.43	29.54
1840.43	28.5872
1850.43	27.0869
1860.43	30.0363
1870.44	31.7137
1880.44	29.2688
1890.44	28.2492
1900.44	32.6883
1910.45	29.2342
1920.45	24.4807
1930.45	25.6483
1940.45	32.2394
1950.46	31.0877
1960.46	29.8774
1970.46	27.6629
1980.46	29.9862
1990.47	36.1085
2000.47	26.267
2010.47	33.4099
2020.47	28.1107
2030.48	32.2936
2040.48	29.5942
2050.48	28.7167
2060.48	28.3159
2070.49	27.922
2080.49	28.9497
2090.49	23.4097
2100.49	33.0311
2110.5	33.3848
2120.5	32.5864
2130.5	26.9148
2140.5	33.5835
2150.51	24.8042
2160.51	28.9652
2170.51	29.6432
2180.51	26.7077
2190.51	30.1624
2200.52	30.644
2210.52	30.1101
2220.52	31.9586
2230.52	30.2504
2240.53	31.9046
2250.53	32.7627
2260.53	30.3702
2270.53	34.1769
2280.54	35.0224
2290.54	32.7659
2300.54	32.9852
2310.54	36.7759
2320.55	30.0506
2330.55	47.0612
2340.55	33.1012
2350.55	25.3187
2360.56	33.5661
2370.56	32.6858
2380.56	31.8424
2390.56	37.9124
2400.57	36.4194
2410.57	35.5028
2420.57	38.3341
2430.57	36.817
2440.58	42.2154
2450.58	42.7132
2460.58	39.4299
2470.58	47.0526
2480.59	103.904
2490.59	45.6664
2500.59	44.3071
2510.59	52.0371
2520.6	50.322
2530.6	53.7879
2540.6	52.6514
2550.6	52.2456
2560.61	55.3199
2570.61	58.1661
2580.61	56.2597
2590.61	63.4027
2600.62	60.3701
2610.62	63.7003
2620.62	68.4801
2630.62	65.3078
2640.63	68.2227
2650.63	75.276
2660.63	77.9058
2670.63	83.1346
2680.64	79.8984
2690.64	85.1175
2700.64	85.052
2710.64	82.9673
2720.65	80.5702
2730.65	75.9943
2740.65	75.2508
2750.65	71.5305
2760.66	74.5252
2770.66	69.4594
2780.66	73.6269
2790.66	66.256
2800.67	61.9169
2810.67	67.0633
2820.67	67.207
2830.67	72.4609
2840.68	61.9171
2850.68	73.2336
2860.68	62.2225
2870.68	70.0122
2880.68	77.8285
2890.69	71.798
2900.69	68.5175
2910.69	73.5813
2920.69	70.2838
2930.7	77.2421
2940.7	79.5695
2950.7	71.9462
2960.7	76.981
2970.71	67.465
2980.71	65.3322
2990.71	54.0566
3000	56.3449