File: Example Data/Raman/CNT - TIM/Raytheon/Al foil/2010/03-29-10/Al - 03-29-10 - B5_2.txt
100	64.8864
110.002	67.659
120.005	64.0309
130.007	56.4548
140.01	60.24
150.012	50.2361
160.015	47.9325
170.017	52.5098
180.02	52.6842
190.022	44.1617
200.025	45.0552
210.027	45.2527
220.03	45.9686
230.032	47.1414
240.034	50.4006
250.037	46.6661
260.039	45.9049
270.042	47.6954
280.044	43.4858
290.047	43.9026
300.049	42.838
310.052	44.169
320.054	39.7379
330.057	39.4966
340.059	45.0388
350.062	40.2641
360.064	42.0989
370.067	43.9507
380.069	42.5887
390.071	32.7924
400.074	41.3835
410.076	33.469
420.079	39.18
430.081	38.4163
440.084	35.4345
450.086	32.1811
460.089	33.1898
470.091	34.659
480.094	36.3584
490.096	29.458
500.099	29.4714
510.101	33.3741
520.103	35.6415
530.106	32.0904
540.108	32.5584
550.111	28.9533
560.113	30.8088
570.116	32.0182
580.118	29.8013
590.121	30.9299
600.123	31.6055
610.126	31.3053
620.128	30.3021
630.131	36.076
640.133	37.7337
650.135	42.2423
660.138	35.1293
670.14	31.818
680.143	38.6824
690.145	39
700.148	34.2283
710.15	39.7007
720.153	41.3983
730.155	38.168
740.158	42.9705
750.16	44.4767
760.163	40.3075
770.165	43.9313
780.168	48.3543
790.17	45.813
800.172	47.9772
810.175	51.6281
820.177	51.7965
830.18	56.9584
840.182	50.0796
850.185	49.5806
860.187	49.9858
870.19	48.6797
880.192	47.882
890.195	44.7037
900.197	42.339
910.2	42.3333
920.202	43.1419
930.204	37.3756
940.207	39.7554
950.209	43.2792
960.212	37.3553
970.214	35.0633
980.217	38.895
990.219	39.3351
1000.22	37.1002
1010.22	45.3479
1020.23	44.9811
1030.23	44.7748
1040.23	50.356
1050.23	53.9495
1060.24	50.7985
1070.24	49.0025
1080.24	56.5357
1090.24	58.667
1100.25	51.7704
1110.25	56.9063
1120.25	60.8248
1130.25	59.4742
1140.26	66.4496
1150.26	74.7889
1160.26	76.0972
1170.26	79.2439
1180.27	77.979
1190.27	90.1398
1200.27	89.3994
1210.27	90.7868
1220.28	91.6749
1230.28	93.6825
1240.28	103.083
1250.28	109.913
1260.29	118.447
1270.29	136
1280.29	132.443
1290.29	146.804
1300.3	173.898
1310.3	182.741
1320.3	204.544
1330.3	216.492
1340.31	229.454
1350.31	230.152
1360.31	213.101
1370.31	204.46
1380.32	186.846
1390.32	167.53
1400.32	157.104
1410.32	144.881
1420.33	125.394
1430.33	120.163
1440.33	132.155
1450.33	132.095
1460.34	126.821
1470.34	118.56
1480.34	115.013
1490.34	119.408
1500.34	122.45
1510.35	118.041
1520.35	127.6
1530.35	114.739
1540.35	126.536
1550.36	139.176
1560.36	159.231
1570.36	175.709
1580.36	207.991
1590.37	227.6
1600.37	227.113
1610.37	210.504
1620.37	177.885
1630.38	143.803
1640.38	109.217
1650.38	87.7519
1660.38	65.7721
1670.39	54.2687
1680.39	41.4349
1690.39	38.2327
1700.39	30.4128
1710.4	30.302
1720.4	30.3896
1730.4	28.2284
1740.4	22.9847
1750.41	25.7962
1760.41	24.4322
1770.41	25.3756
1780.41	26.2533
1790.42	23.4129
1800.42	25.6111
1810.42	20.5171
1820.42	28.8507
1830.43	27.3668
1840.43	23.2384
1850.43	21.9708
1860.43	18.0797
1870.44	26.1945
1880.44	23.2172
1890.44	22.1311
1900.44	19.5463
1910.45	21.0726
1920.45	21.9959
1930.45	21.8298
1940.45	20.9742
1950.46	20.3825
1960.46	23.8774
1970.46	29.0453
1980.46	18.3003
1990.47	23.1835
2000.47	25.6667
2010.47	26.4221
2020.47	25.2207
2030.48	22.475
2040.48	20.3817
2050.48	21.3991
2060.48	18.9199
2070.49	23.2367
2080.49	21.3698
2090.49	22.6183
2100.49	26.4922
2110.5	23.5498
2120.5	21.333
2130.5	27.9067
2140.5	21.6821
2150.51	24.843
2160.51	22.5626
2170.51	21.9838
2180.51	20.2302
2190.51	18.3419
2200.52	20.5861
2210.52	16.8835
2220.52	24.645
2230.52	23.382
2240.53	20.745
2250.53	22.8873
2260.53	21.4531
2270.53	25.5558
2280.54	24.5106
2290.54	25.2341
2300.54	24.9127
2310.54	22.8263
2320.55	23.8046
2330.55	45.9394
2340.55	26.1912
2350.55	25.5867
2360.56	27.4113
2370.56	28.476
2380.56	27.5848
2390.56	24.9275
2400.57	27.3785
2410.57	27.3389
2420.57	25.4816
2430.57	29.2418
2440.58	31.2441
2450.58	32.0091
2460.58	28.8115
2470.58	32.6667
2480.59	31.2812
2490.59	31.3326
2500.59	34.2686
2510.59	33.1869
2520.6	33.1229
2530.6	35.8396
2540.6	36.0096
2550.6	32.924
2560.61	29.9522
2570.61	36.7142
2580.61	40.7761
2590.61	41.3689
2600.62	38.4487
2610.62	37.8062
2620.62	45.5169
2630.62	41.0473
2640.63	44.7783
2650.63	48.6126
2660.63	49.6394
2670.63	51.4218
2680.64	52.2024
2690.64	52.2597
2700.64	51.6375
2710.64	49.1083
2720.65	46.5267
2730.65	44.9156
2740.65	42.6143
2750.65	41.3937
2760.66	38.5853
2770.66	43.1153
2780.66	37.0494
2790.66	45.3417
2800.67	44.7103
2810.67	45.44
2820.67	44.6206
2830.67	40.1853
2840.68	43.7806
2850.68	45.2458
2860.68	41.1187
2870.68	47.1193
2880.68	48.9464
2890.69	45.9651
2900.69	44.3481
2910.69	43.0971
2920.69	44.1778
2930.7	41.8919
2940.7	47.5857
2950.7	48.8493
2960.7	43.0929
2970.71	38.3824
2980.71	34.5996
2990.71	41.0034
3000	40.6427