File: Example Data/Raman/CNT - TIM/Raytheon/Al foil/2010/03-29-10/Al - 03-29-10 - B3_2.txt
100	48.3746
110.002	57.2317
120.005	50.8214
130.007	52.2026
140.01	56.7722
150.012	44.1905
160.015	41.1865
170.017	42.3488
180.02	41.7444
190.022	39.3564
200.025	35.9326
210.027	32.1721
220.03	38.5661
230.032	41.0558
240.034	38.9391
250.037	37.6697
260.039	43.6242
270.042	41.6001
280.044	39.8991
290.047	42.5764
300.049	42.6201
310.052	37.7662
320.054	39.2641
330.057	35.3469
340.059	39.3722
350.062	31.9886
360.064	35.1917
370.067	31.9015
380.069	33.8949
390.071	36.6667
400.074	31.4638
410.076	30.5057
420.079	39.0604
430.081	33.1926
440.084	34.2478
450.086	29.4062
460.089	29.2481
470.091	28.7008
480.094	34.1542
490.096	24.5089
500.099	27.5516
510.101	30.4291
520.103	33.3384
530.106	29.6045
540.108	28.1145
550.111	25.5886
560.113	23.8113
570.116	24.1635
580.118	25.5641
590.121	32.9648
600.123	30.6771
610.126	27.9768
620.128	34.8551
630.131	34.3196
640.133	30.6415
650.135	35.1345
660.138	36.4683
670.14	36.6078
680.143	29.8778
690.145	33.7326
700.148	36.7546
710.15	35.3333
720.153	42.2766
730.155	34.8375
740.158	35.9858
750.16	39.4341
760.163	41.3042
770.165	43.7795
780.168	42.4793
790.17	43.2195
800.172	42.8965
810.175	44.158
820.177	46.5996
830.18	46
840.182	53.7132
850.185	59.1163
860.187	43.2908
870.19	37.4181
880.192	40.008
890.195	42.9109
900.197	37.2436
910.2	37.8166
920.202	34.115
930.204	32.0053
940.207	36.1288
950.209	32.5467
960.212	32.438
970.214	34.9339
980.217	35.4094
990.219	37.6643
1000.22	42.5975
1010.22	35.6986
1020.23	39.9937
1030.23	42.5239
1040.23	41.7725
1050.23	46.7497
1060.24	44.0851
1070.24	44.6231
1080.24	51.5357
1090.24	54.3143
1100.25	53.8608
1110.25	55.7995
1120.25	49.4635
1130.25	52.9202
1140.26	59.6961
1150.26	65.3566
1160.26	71.7261
1170.26	66.4861
1180.27	70.1098
1190.27	69.5187
1200.27	72.7402
1210.27	71.2767
1220.28	86.1724
1230.28	83.0277
1240.28	80.7742
1250.28	95.4139
1260.29	107.732
1270.29	108.182
1280.29	131.603
1290.29	138.819
1300.3	164.795
1310.3	210.856
1320.3	240.491
1330.3	286.74
1340.31	323.478
1350.31	340.608
1360.31	321.249
1370.31	278.079
1380.32	233.129
1390.32	213.27
1400.32	182.333
1410.32	157.173
1420.33	135.273
1430.33	123.727
1440.33	123.543
1450.33	131.269
1460.34	118.186
1470.34	111.035
1480.34	124.804
1490.34	119.402
1500.34	122.917
1510.35	117.791
1520.35	121.169
1530.35	131.053
1540.35	146.189
1550.36	164.317
1560.36	195.705
1570.36	236.138
1580.36	272.693
1590.37	295.03
1600.37	294.415
1610.37	285.253
1620.37	248.944
1630.38	209.994
1640.38	151.77
1650.38	110.642
1660.38	77.8768
1670.39	62.7364
1680.39	46.7138
1690.39	40.3459
1700.39	35.8014
1710.4	30.9686
1720.4	30.4292
1730.4	26.7469
1740.4	21.1801
1750.41	28.1714
1760.41	22.0719
1770.41	24.6572
1780.41	19.9956
1790.42	25.2699
1800.42	25.6383
1810.42	21.1207
1820.42	22.1194
1830.43	18.2748
1840.43	23.3057
1850.43	22.7101
1860.43	21
1870.44	19.4808
1880.44	17.2453
1890.44	16.9716
1900.44	18.1389
1910.45	21.3782
1920.45	23.3292
1930.45	15.945
1940.45	19.493
1950.46	18.7228
1960.46	18.9365
1970.46	22.8073
1980.46	23.0937
1990.47	21.0086
2000.47	21.4679
2010.47	25.2795
2020.47	22.1114
2030.48	20.2416
2040.48	20.1088
2050.48	26.6823
2060.48	21.8268
2070.49	20.7819
2080.49	18.7169
2090.49	22.8957
2100.49	21.5902
2110.5	23.9432
2120.5	24.5009
2130.5	22.4266
2140.5	20.0616
2150.51	26.2675
2160.51	22.8611
2170.51	20.6902
2180.51	21.255
2190.51	26.1624
2200.52	19.4593
2210.52	22.8618
2220.52	19.8993
2230.52	24.1939
2240.53	23.4012
2250.53	18.065
2260.53	22.2214
2270.53	27.3982
2280.54	21.4001
2290.54	32.8417
2300.54	17.6814
2310.54	18.4776
2320.55	20.8586
2330.55	45.3614
2340.55	27.8579
2350.55	26.8547
2360.56	26.3017
2370.56	25.1144
2380.56	31.8545
2390.56	27.7486
2400.57	30.7656
2410.57	32.7803
2420.57	27.8886
2430.57	29.266
2440.58	31.8687
2450.58	36.3941
2460.58	36.9858
2470.58	34.3255
2480.59	38.2986
2490.59	35.0013
2500.59	36.7031
2510.59	31.6525
2520.6	35.4689
2530.6	38.2246
2540.6	38.3831
2550.6	45.6434
2560.61	40.7145
2570.61	41
2580.61	44.2086
2590.61	43.4168
2600.62	42.9166
2610.62	53.9792
2620.62	62.1045
2630.62	64.1022
2640.63	73.1267
2650.63	72.5967
2660.63	81.0579
2670.63	89.938
2680.64	96.6396
2690.64	104
2700.64	102.664
2710.64	107.156
2720.65	91.0408
2730.65	83.3362
2740.65	77.798
2750.65	72.1148
2760.66	66.2673
2770.66	57.0708
2780.66	56.2079
2790.66	49.2865
2800.67	56.6744
2810.67	49.97
2820.67	49.3514
2830.67	50.5247
2840.68	44.8911
2850.68	41.9733
2860.68	47.1954
2870.68	52.262
2880.68	54.9571
2890.69	51.6999
2900.69	53.4973
2910.69	52.966
2920.69	51.484
2930.7	46.6836
2940.7	50.5761
2950.7	60.1182
2960.7	52.0095
2970.71	48.7955
2980.71	45.3997
2990.71	40.2066
3000	37.1431