File: Example Data/Raman/CNT - TIM/Raytheon/Al foil/2010/03-29-10/Al - 03-29-10 - B5_1.txt
100	69.2507
110.002	70.3596
120.005	65.7436
130.007	62.1724
140.01	64.6237
150.012	49.2778
160.015	59.7937
170.017	52.7781
180.02	49.725
190.022	53
200.025	49.0103
210.027	50.4493
220.03	52.1887
230.032	50.9755
240.034	52.8162
250.037	44.0063
260.039	52.6566
270.042	49.2096
280.044	53.0104
290.047	51.8329
300.049	49.7356
310.052	48.5324
320.054	48.2369
330.057	45.4763
340.059	45.9407
350.062	43.4827
360.064	44.1623
370.067	45.0821
380.069	44.6983
390.071	48.6287
400.074	40.0703
410.076	43.6552
420.079	37.8744
430.081	39.077
440.084	42.3176
450.086	43.1522
460.089	37.562
470.091	42.428
480.094	38.6416
490.096	31.5445
500.099	32.1495
510.101	40.4752
520.103	39.7895
530.106	34.9284
540.108	38.9451
550.111	34.5157
560.113	39.8088
570.116	35.7692
580.118	33.2437
590.121	34.842
600.123	36.444
610.126	37.5446
620.128	40.6667
630.131	33.4757
640.133	36.9161
650.135	39.2581
660.138	38.1622
670.14	41.6919
680.143	41.7199
690.145	42.2713
700.148	42.9561
710.15	40.4218
720.153	38.9751
730.155	52.8317
740.158	42.8972
750.16	48.2015
760.163	53.3042
770.165	43.1077
780.168	51.886
790.17	54.1087
800.172	55.7971
810.175	49.842
820.177	54.3938
830.18	53.5208
840.182	59.1931
850.185	58.1385
860.187	55.5108
870.19	53.3235
880.192	49.5502
890.195	49.754
900.197	43.2471
910.2	42.4411
920.202	46.0878
930.204	39.8913
940.207	38.0642
950.209	39.4456
960.212	48.6034
970.214	43.8815
980.217	45.5433
990.219	45.7998
1000.22	50.5664
1010.22	51.9593
1020.23	49.5867
1030.23	53.7013
1040.23	53.4467
1050.23	58.9495
1060.24	61.9065
1070.24	63.9866
1080.24	66.6022
1090.24	60.0097
1100.25	67.8303
1110.25	71.4923
1120.25	75.9771
1130.25	80.0845
1140.26	81.3474
1150.26	97.7366
1160.26	98.6402
1170.26	99.4163
1180.27	109.776
1190.27	103.811
1200.27	110.301
1210.27	115.123
1220.28	118.534
1230.28	123.671
1240.28	120.881
1250.28	144.852
1260.29	155.228
1270.29	165.939
1280.29	174.715
1290.29	198.499
1300.3	214.795
1310.3	235.463
1320.3	248.155
1330.3	266.049
1340.31	276.011
1350.31	259.844
1360.31	267.582
1370.31	252.624
1380.32	234.204
1390.32	209.904
1400.32	199.66
1410.32	181.474
1420.33	166.152
1430.33	164.976
1440.33	157.163
1450.33	149.442
1460.34	158.726
1470.34	156.149
1480.34	152.255
1490.34	147.986
1500.34	154.267
1510.35	154.02
1520.35	148.969
1530.35	168.894
1540.35	165.701
1550.36	174.274
1560.36	189.474
1570.36	208.883
1580.36	244.448
1590.37	275.839
1600.37	300.012
1610.37	280.626
1620.37	230.356
1630.38	181.184
1640.38	136.658
1650.38	107.195
1660.38	81.7201
1670.39	62.6418
1680.39	45.1266
1690.39	43.8742
1700.39	36.6932
1710.4	32.3058
1720.4	40.3604
1730.4	27.6142
1740.4	22.8295
1750.41	22.2267
1760.41	33.1895
1770.41	24.0517
1780.41	24.9913
1790.42	25.3333
1800.42	19.6943
1810.42	24.63
1820.42	21.7503
1830.43	26.8734
1840.43	24.7495
1850.43	27.0149
1860.43	27.1848
1870.44	23.3803
1880.44	27.9225
1890.44	26.0371
1900.44	31.3024
1910.45	20.072
1920.45	23.6157
1930.45	22.9541
1940.45	29.8286
1950.46	23.8772
1960.46	21.0836
1970.46	23.763
1980.46	18.2673
1990.47	31.5504
2000.47	25.934
2010.47	23.6411
2020.47	26.5548
2030.48	28.002
2040.48	25.0846
2050.48	22.7684
2060.48	25.4847
2070.49	25.9752
2080.49	24.6757
2090.49	25.7468
2100.49	28.9421
2110.5	24.5241
2120.5	28.168
2130.5	26.4266
2140.5	32.281
2150.51	23.7983
2160.51	25.0832
2170.51	28.395
2180.51	24.6008
2190.51	21.3591
2200.52	18.4718
2210.52	30.8711
2220.52	25.6548
2230.52	26.5964
2240.53	28.1244
2250.53	28.3119
2260.53	27.9432
2270.53	28.8467
2280.54	21.1549
2290.54	26.9008
2300.54	28.797
2310.54	29.4482
2320.55	29.2758
2330.55	43.5143
2340.55	30.8676
2350.55	32.911
2360.56	32.6938
2370.56	28.9429
2380.56	32.4789
2390.56	30.7486
2400.57	31.2215
2410.57	31.7169
2420.57	36.6306
2430.57	35.7876
2440.58	38.1077
2450.58	38.3191
2460.58	30.5748
2470.58	37.9133
2480.59	40.4029
2490.59	42.8358
2500.59	43.2969
2510.59	39.0229
2520.6	39.1003
2530.6	39.6025
2540.6	36.8064
2550.6	42.5964
2560.61	38.1948
2570.61	43.6906
2580.61	49.0358
2590.61	47.5738
2600.62	46.3169
2610.62	42.8736
2620.62	52.929
2630.62	48.8905
2640.63	49.1489
2650.63	52.0732
2660.63	50.725
2670.63	52.6565
2680.64	55.2736
2690.64	53.1264
2700.64	53.3753
2710.64	59.5548
2720.65	54.6458
2730.65	54.4211
2740.65	54.7166
2750.65	46.8567
2760.66	53.6
2770.66	51.2024
2780.66	51.0334
2790.66	58.9239
2800.67	50.7331
2810.67	48.8469
2820.67	51.8414
2830.67	48.6834
2840.68	48.9633
2850.68	51.2943
2860.68	53.3525
2870.68	56.0958
2880.68	57.3226
2890.69	51.9335
2900.69	52.3132
2910.69	59.731
2920.69	54.3654
2930.7	46.151
2940.7	57.1619
2950.7	48.828
2960.7	54.531
2970.71	50.2843
2980.71	53.267
2990.71	44.1466
3000	46.6898