File: Example Data/Raman/CNT - TIM/Raytheon/Al foil/2010/03-29-10/Al - 03-29-10 - B4_4.txt
100	70.9897
110.002	77.3016
120.005	71.7595
130.007	69.8585
140.01	65.4939
150.012	56.7679
160.015	58.0714
170.017	56.1424
180.02	57.6472
190.022	52.2871
200.025	47.221
210.027	49.644
220.03	49.1635
230.032	52.9511
240.034	48.2788
250.037	46.6678
260.039	49.7617
270.042	46.1619
280.044	40.956
290.047	46.7909
300.049	45.2514
310.052	46.5925
320.054	48.1867
330.057	47.0541
340.059	42.4542
350.062	49.4134
360.064	50.5324
370.067	41.3498
380.069	45.452
390.071	42.5029
400.074	43.9097
410.076	43.8023
420.079	39.4915
430.081	39.4163
440.084	36.0698
450.086	44.0868
460.089	35.5815
470.091	37.4962
480.094	31.7
490.096	42.8397
500.099	35.2068
510.101	35.3102
520.103	36.5438
530.106	36.6139
540.108	38.7765
550.111	36.7031
560.113	37.8315
570.116	35.7393
580.118	41.2949
590.121	36.7193
600.123	35.7174
610.126	37.4127
620.128	39.9063
630.131	39.3539
640.133	44.5293
650.135	38.8012
660.138	42.7357
670.14	36.1009
680.143	47.4615
690.145	39.0057
700.148	46.0525
710.15	45.3368
720.153	42.5201
730.155	52.3346
740.158	42.4185
750.16	48
760.163	47.9417
770.165	49.9975
780.168	53.5108
790.17	55.6667
800.172	51.6895
810.175	55.8247
820.177	56.3289
830.18	62.5208
840.182	56.8132
850.185	56.1948
860.187	53.922
870.19	54.4018
880.192	50.1814
890.195	47.489
900.197	49.9371
910.2	46.2799
920.202	41.2037
930.204	43.451
940.207	44.3137
950.209	45.0082
960.212	46.0973
970.214	41.2782
980.217	45.4172
990.219	47.5347
1000.22	46.323
1010.22	48.0348
1020.23	49.9039
1030.23	52.697
1040.23	60.0385
1050.23	60.3165
1060.24	55.5272
1070.24	57.5988
1080.24	64.8328
1090.24	59.0763
1100.25	65.1038
1110.25	68.1198
1120.25	70.4914
1130.25	70.338
1140.26	89.9657
1150.26	91.8486
1160.26	86.1615
1170.26	87.0033
1180.27	94.1766
1190.27	95.6515
1200.27	91.2539
1210.27	100.847
1220.28	110.908
1230.28	121.532
1240.28	125.143
1250.28	122.084
1260.29	129.618
1270.29	150.833
1280.29	154.513
1290.29	162.7
1300.3	180.999
1310.3	199.83
1320.3	222.124
1330.3	229.169
1340.31	245.76
1350.31	247.127
1360.31	237.887
1370.31	235.951
1380.32	208.08
1390.32	181.965
1400.32	177.1
1410.32	172.489
1420.33	172.273
1430.33	155.413
1440.33	149.372
1450.33	139.646
1460.34	144.57
1470.34	155.092
1480.34	157.843
1490.34	149.337
1500.34	131.718
1510.35	136.817
1520.35	144.149
1530.35	160.158
1540.35	160.14
1550.36	171.511
1560.36	193.308
1570.36	209.526
1580.36	226.572
1590.37	248.108
1600.37	248.983
1610.37	236.924
1620.37	186.117
1630.38	156.969
1640.38	123.482
1650.38	96.1382
1660.38	60.5981
1670.39	61.194
1680.39	47.7174
1690.39	44.6353
1700.39	35.4658
1710.4	39.0912
1720.4	34.8521
1730.4	29.7779
1740.4	23.569
1750.41	27.081
1760.41	32.7302
1770.41	28.0845
1780.41	26.8443
1790.42	25.4764
1800.42	25.5278
1810.42	31.0078
1820.42	28.5771
1830.43	26.6786
1840.43	31.0121
1850.43	28.4065
1860.43	24.2174
1870.44	29.8973
1880.44	26.2172
1890.44	27.0983
1900.44	28.6512
1910.45	26.685
1920.45	26.0083
1930.45	26.2161
1940.45	34.8169
1950.46	24.9123
1960.46	24.4805
1970.46	22.8555
1980.46	25.1129
1990.47	22.4582
2000.47	30.4661
2010.47	27.4637
2020.47	28.8881
2030.48	27.6646
2040.48	20.8117
2050.48	30.6494
2060.48	30.8938
2070.49	25
2080.49	24.5936
2090.49	27.9516
2100.49	27.2617
2110.5	26.4502
2120.5	28.9138
2130.5	27.0987
2140.5	32.9476
2150.51	26.0194
2160.51	31.5278
2170.51	28.1703
2180.51	29.2923
2190.51	27.8632
2200.52	26.5861
2210.52	21.6496
2220.52	26.5955
2230.52	27.3142
2240.53	28.0225
2250.53	27.4407
2260.53	29.2953
2270.53	26.8812
2280.54	29.5334
2290.54	28.0702
2300.54	27.2325
2310.54	29.5574
2320.55	25.0402
2330.55	43.3028
2340.55	30.4477
2350.55	29.6059
2360.56	27.8588
2370.56	30.5048
2380.56	35.6848
2390.56	31.322
2400.57	23.8839
2410.57	34.5792
2420.57	33.9985
2430.57	38.5405
2440.58	34.9713
2450.58	32.4083
2460.58	35.4688
2470.58	39.1628
2480.59	36.8947
2490.59	40.1655
2500.59	39.4869
2510.59	42.9277
2520.6	34.9266
2530.6	41
2540.6	39.3333
2550.6	41.0585
2560.61	40.4215
2570.61	39.7621
2580.61	45.2137
2590.61	44.5482
2600.62	43.683
2610.62	51.2795
2620.62	51.2317
2630.62	52.0586
2640.63	52.6133
2650.63	52.1544
2660.63	55.3268
2670.63	56.4319
2680.64	52.2594
2690.64	51.2758
2700.64	52.8847
2710.64	60.3803
2720.65	50.8646
2730.65	54.7677
2740.65	54.7813
2750.65	49.8284
2760.66	54.4875
2770.66	48.9206
2780.66	49.4533
2790.66	52.2989
2800.67	47.7901
2810.67	50.9348
2820.67	46.7878
2830.67	48.4695
2840.68	48.4473
2850.68	51.4743
2860.68	47.2182
2870.68	53.0723
2880.68	54.5756
2890.69	49.3001
2900.69	51.4919
2910.69	51.4947
2920.69	57.2235
2930.7	51.7167
2940.7	49.9434
2950.7	44.0863
2960.7	51.1071
2970.71	43.0182
2980.71	51.3997
2990.71	46.9434
3000	46.1307