File: Example Data/Raman/Kara/12-20-10/C-Si-Graphene/2 bulk/CSGbulk2_2.txt
100	192.213
112.793	215.385
125.586	231.852
138.38	257.904
151.173	245.874
163.966	225.794
176.759	205.082
189.552	189.971
202.345	202.729
215.139	186.814
227.932	188.323
240.725	202.968
253.518	197.408
266.311	212.657
279.104	207.77
291.898	225.001
304.691	228.6
317.484	220.856
330.277	218.205
343.07	205.5
355.864	213.794
368.657	195.907
381.45	202.964
394.243	195.902
407.036	184.268
419.829	186.575
432.623	188.774
445.416	188.594
458.209	177.273
471.002	198.715
483.795	235.238
496.589	267.835
509.382	412.027
522.175	880.999
534.968	246.305
547.761	148.943
560.554	137.145
573.348	130.406
586.141	131.173
598.934	128.934
611.727	124.623
624.52	121.72
637.313	122.997
650.107	133.04
662.9	139.016
675.693	127.821
688.486	129.067
701.279	126.383
714.073	121.585
726.866	126.548
739.659	129.501
752.452	126.138
765.245	125.266
778.038	129.157
790.832	132.154
803.625	139.137
816.418	143.912
829.211	138.512
842.004	149.092
854.797	144.069
867.591	148.787
880.384	147.874
893.177	142.655
905.97	149.173
918.763	150.267
931.557	157.271
944.35	162.353
957.143	165.295
969.936	161.259
982.729	151.748
995.522	147.596
1008.32	142.223
1021.11	152.629
1033.9	162.428
1046.7	156.687
1059.49	162.068
1072.28	174.407
1085.07	186
1097.87	199.341
1110.66	218.629
1123.45	225.032
1136.25	254.071
1149.04	304.895
1161.83	347.929
1174.63	368.074
1187.42	415.8
1200.21	440.157
1213.01	467.958
1225.8	501.259
1238.59	540.769
1251.39	575.445
1264.18	629.886
1276.97	661.189
1289.77	707.826
1302.56	767.123
1315.35	829.446
1328.15	878.034
1340.94	910.858
1353.73	894.999
1366.52	890.945
1379.32	841.122
1392.11	788.765
1404.9	727.109
1417.7	691.072
1430.49	637.721
1443.28	611.381
1456.08	594.63
1468.87	591.498
1481.66	566.361
1494.46	567.691
1507.25	557.724
1520.04	550.15
1532.84	567.713
1545.63	632.889
1558.42	704.687
1571.22	814.38
1584.01	975.157
1596.8	1101.96
1609.59	1063.32
1622.39	876.669
1635.18	621.317
1647.97	437.875
1660.77	336.607
1673.56	256.503
1686.35	217.021
1699.15	179.431
1711.94	160.133
1724.73	145.543
1737.53	118.274
1750.32	114.692
1763.11	103.71
1775.91	106.13
1788.7	101.038
1801.49	100.877
1814.29	98.6555
1827.08	95.4579
1839.87	94.4677
1852.67	100.542
1865.46	93.2382
1878.25	94.978
1891.04	83.5056
1903.84	96.365
1916.63	86.908
1929.42	92.0053
1942.22	83.4375
1955.01	85.5812
1967.8	82.1635
1980.6	82.623
1993.39	84.2259
2006.18	89.78
2018.98	82.7072
2031.77	83.3076
2044.56	86.9443
2057.36	87.5281
2070.15	84.979
2082.94	88.0189
2095.74	84.2519
2108.53	84.9149
2121.32	83.99
2134.12	79.8242
2146.91	85.9167
2159.7	86.9279
2172.49	87.0962
2185.29	89.5823
2198.08	91.3631
2210.87	90.625
2223.67	88.3917
2236.46	87.9331
2249.25	95.3757
2262.05	92.0396
2274.84	95.5573
2287.63	98.3575
2300.43	98.9133
2313.22	101.064
2326.01	100.41
2338.81	118.97
2351.6	109.835
2364.39	113.109
2377.19	110.938
2389.98	120.857
2402.77	127.255
2415.56	130.616
2428.36	140.577
2441.15	176.638
2453.94	152.061
2466.74	150.709
2479.53	154.066
2492.32	149.913
2505.12	156.896
2517.91	163.464
2530.7	168.013
2543.5	169.074
2556.29	174.647
2569.08	186.704
2581.88	182.053
2594.67	182.692
2607.46	194.245
2620.26	191.326
2633.05	192.363
2645.84	203.364
2658.64	205.496
2671.43	204.149
2684.22	205.879
2697.01	215.943
2709.81	216.299
2722.6	218.763
2735.39	213.015
2748.19	219.121
2760.98	220.735
2773.77	215.339
2786.57	231.475
2799.36	226.877
2812.15	233.7
2824.95	236.293
2837.74	241.734
2850.53	235.18
2863.33	245.799
2876.12	245.428
2888.91	247.891
2901.71	245.617
2914.5	247.72
2927.29	252.411
2940.09	250.827
2952.88	247.18
2965.67	241.677
2978.46	231.038
2991.26	223.994
3004.05	213.682
3016.84	206.647
3029.64	195.753
3042.43	202.184
3055.22	199.47
3068.02	190.569
3080.81	185.367
3093.6	177.746
3106.4	185.885
3119.19	171.63
3131.98	173.808
3144.78	177.402
3157.57	177.543
3170.36	172.787
3183.16	170.606
3195.95	174.804
3208.74	173.024
3221.54	165.316
3234.33	155.121
3247.12	147.592
3259.91	142.676
3272.71	132.902
3285.5	132.737
3298.29	125.581
3311.09	134.936
3323.88	122.488
3336.67	126.135
3349.47	125.613
3362.26	119.889
3375.05	112.904
3387.85	121.059
3400.64	115.789
3413.43	115.382
3426.23	123.86
3439.02	123.996
3451.81	126.077
3464.61	125.771
3477.4	113.501
3490.19	124.512
3502.99	123.941
3515.78	114.481
3528.57	119.299
3541.36	116.149
3554.16	128.714
3566.95	124.823
3579.74	120.867
3592.54	130.309
3605.33	128.817
3618.12	124.819
3630.92	130.167
3643.71	128.261
3656.5	125.165
3669.3	124.981
3682.09	130.048
3694.88	129.735
3700	135.582