File: Example Data/Raman/Kara/12-20-10/C-Si-Graphene/2 bulk/CSGbulk2_4.txt
100	83.3563
112.793	93.5894
125.586	96.8182
138.38	107.94
151.173	105.168
163.966	100.163
176.759	85.5588
189.552	76.6703
202.345	76.0845
215.139	83.9856
227.932	79.2248
240.725	87.1722
253.518	87.3343
266.311	96.1873
279.104	87.3509
291.898	89.7597
304.691	99.1518
317.484	88.6598
330.277	86.2666
343.07	90.8034
355.864	89.9176
368.657	79.9704
381.45	74.8987
394.243	75.5385
407.036	76.9658
419.829	70.5314
432.623	76.5488
445.416	81.4628
458.209	76.8556
471.002	78.4076
483.795	98.9482
496.589	124.701
509.382	197.318
522.175	402.417
534.968	103.931
547.761	58.372
560.554	46.6612
573.348	47.1545
586.141	47.6958
598.934	44.9927
611.727	38.5117
624.52	45.48
637.313	42.1892
650.107	47.3203
662.9	48.2404
675.693	44.6075
688.486	43.6808
701.279	44.5944
714.073	52.1646
726.866	39.7728
739.659	43.7493
752.452	44.948
765.245	45.9295
778.038	52.1941
790.832	50.3954
803.625	53.7337
816.418	51.0693
829.211	56.9121
842.004	54.3577
854.797	58.2208
867.591	50.6869
880.384	58.2717
893.177	60.2735
905.97	52.1897
918.763	60.7506
931.557	55.9103
944.35	68.8779
957.143	68.1909
969.936	67.8727
982.729	67.8289
995.522	58.2634
1008.32	56.5148
1021.11	54.1797
1033.9	62.704
1046.7	66.6785
1059.49	71.2703
1072.28	66.1034
1085.07	72.8227
1097.87	79.8278
1110.66	88.1971
1123.45	100.512
1136.25	109.078
1149.04	127.543
1161.83	149.686
1174.63	169.559
1187.42	188.127
1200.21	204.124
1213.01	204.701
1225.8	240.869
1238.59	240.356
1251.39	266.022
1264.18	281.13
1276.97	313.839
1289.77	339.624
1302.56	355.783
1315.35	394.747
1328.15	411.678
1340.94	434.892
1353.73	434.516
1366.52	433.521
1379.32	395.78
1392.11	375.861
1404.9	339.827
1417.7	333.844
1430.49	299.126
1443.28	279.172
1456.08	285.079
1468.87	275.314
1481.66	269.093
1494.46	261.403
1507.25	262.116
1520.04	265.734
1532.84	275.738
1545.63	284.865
1558.42	324.161
1571.22	390.684
1584.01	465.566
1596.8	525.915
1609.59	520.997
1622.39	423.017
1635.18	297.741
1647.97	213.002
1660.77	159.412
1673.56	112.434
1686.35	89.6546
1699.15	73.3776
1711.94	58.6667
1724.73	50.9891
1737.53	48.7038
1750.32	40.3083
1763.11	41.7798
1775.91	36.9704
1788.7	38.5011
1801.49	36.8861
1814.29	35.4122
1827.08	29.6223
1839.87	29.3083
1852.67	36.2207
1865.46	26.7558
1878.25	30.6775
1891.04	26.1393
1903.84	27.188
1916.63	26.9987
1929.42	27.7293
1942.22	26.6471
1955.01	26.1995
1967.8	26.2468
1980.6	26.034
1993.39	25.7832
2006.18	28.4228
2018.98	28.9638
2031.77	24.4364
2044.56	28.2704
2057.36	28.9548
2070.15	27.0506
2082.94	25.3389
2095.74	28.3328
2108.53	28.3761
2121.32	27.1531
2134.12	28.6736
2146.91	25.4959
2159.7	26.736
2172.49	29.2669
2185.29	32.2007
2198.08	30.0409
2210.87	29.8957
2223.67	34.2363
2236.46	28.8365
2249.25	26.4744
2262.05	33.8955
2274.84	33.9351
2287.63	33.8745
2300.43	34.8707
2313.22	37.9191
2326.01	34.2874
2338.81	47.2282
2351.6	41.6432
2364.39	40.7666
2377.19	42.4323
2389.98	46.2129
2402.77	48.1758
2415.56	55.261
2428.36	60.2683
2441.15	76.8951
2453.94	65.3468
2466.74	64.8994
2479.53	64.9289
2492.32	66.6995
2505.12	65.4936
2517.91	68.914
2530.7	72.0859
2543.5	79.7839
2556.29	76.3294
2569.08	76.1134
2581.88	80.1896
2594.67	79.5056
2607.46	87.6656
2620.26	82.8287
2633.05	90.0023
2645.84	88.294
2658.64	87.4253
2671.43	93.1299
2684.22	94.1403
2697.01	101.905
2709.81	98.1869
2722.6	100.311
2735.39	98.4595
2748.19	98.6921
2760.98	106.103
2773.77	98.4496
2786.57	102.02
2799.36	99.2278
2812.15	105.931
2824.95	99.9356
2837.74	114.267
2850.53	110.19
2863.33	109.815
2876.12	111.714
2888.91	113.755
2901.71	113.562
2914.5	116.667
2927.29	112.46
2940.09	116.094
2952.88	114.592
2965.67	110.467
2978.46	99.1535
2991.26	96.6219
3004.05	95.9048
3016.84	94.631
3029.64	88.6736
3042.43	87.1583
3055.22	82.8556
3068.02	86.1278
3080.81	83.8914
3093.6	77.2966
3106.4	80.4327
3119.19	76.5096
3131.98	76.5596
3144.78	70.412
3157.57	76.0095
3170.36	68.7557
3183.16	80.5031
3195.95	72.8968
3208.74	72.4366
3221.54	71.7044
3234.33	69.9331
3247.12	61.0297
3259.91	59.4402
3272.71	57.5181
3285.5	56.8804
3298.29	52.2417
3311.09	47.5038
3323.88	55.2213
3336.67	45.4479
3349.47	52.4317
3362.26	50.9494
3375.05	51.0596
3387.85	51.2401
3400.64	50.0215
3413.43	50.5989
3426.23	51.4915
3439.02	50.7156
3451.81	51.93
3464.61	44.9777
3477.4	42.9187
3490.19	48.106
3502.99	57.9005
3515.78	44.8867
3528.57	46.6666
3541.36	49.7175
3554.16	48.3526
3566.95	53.741
3579.74	50.7231
3592.54	50.5538
3605.33	51.3873
3618.12	48.2527
3630.92	58.784
3643.71	54.7764
3656.5	54.6694
3669.3	53.1798
3682.09	57.1177
3694.88	55.3963
3700	51.2674