File: Example Data/Raman/Kara/12-20-10/C-Si-Graphene/2 bulk/CSGbulk2_3.txt
100	184.153
112.793	217.162
125.586	243.482
138.38	247.061
151.173	242.312
163.966	224.66
176.759	199.9
189.552	189.93
202.345	194.818
215.139	192.434
227.932	189.008
240.725	199.176
253.518	198.384
266.311	206.005
279.104	204.422
291.898	229.245
304.691	217.015
317.484	208.817
330.277	209.348
343.07	200.799
355.864	196.431
368.657	186.474
381.45	191.356
394.243	179.735
407.036	189.131
419.829	188.475
432.623	193.703
445.416	182.245
458.209	182.541
471.002	202.183
483.795	232.812
496.589	259.783
509.382	408.248
522.175	869.96
534.968	241.981
547.761	152.845
560.554	137.716
573.348	125.816
586.141	127.334
598.934	125.305
611.727	126.915
624.52	136.92
637.313	126.869
650.107	127.05
662.9	128.414
675.693	124.884
688.486	121.084
701.279	119.089
714.073	124.999
726.866	120.968
739.659	122.503
752.452	126.891
765.245	124.507
778.038	130.296
790.832	129.596
803.625	134.85
816.418	130.706
829.211	138.688
842.004	146.184
854.797	144.873
867.591	141.909
880.384	148.981
893.177	141.785
905.97	148.389
918.763	145.582
931.557	155.978
944.35	166.127
957.143	161.8
969.936	165.507
982.729	148.667
995.522	158.641
1008.32	148.056
1021.11	150.085
1033.9	146.064
1046.7	161.18
1059.49	168.523
1072.28	179.026
1085.07	181.13
1097.87	193.37
1110.66	213.905
1123.45	228.764
1136.25	262.519
1149.04	291.083
1161.83	333.478
1174.63	361.446
1187.42	395.218
1200.21	428.785
1213.01	460.924
1225.8	498.728
1238.59	538.319
1251.39	565.541
1264.18	603.563
1276.97	671.27
1289.77	705.382
1302.56	781.721
1315.35	833.07
1328.15	874.318
1340.94	911.384
1353.73	898.883
1366.52	869.138
1379.32	828.025
1392.11	775.312
1404.9	726.608
1417.7	676.613
1430.49	632.581
1443.28	611.637
1456.08	592.994
1468.87	582.942
1481.66	580.519
1494.46	567.903
1507.25	538.237
1520.04	560.351
1532.84	578.738
1545.63	631.981
1558.42	681.076
1571.22	817.857
1584.01	963.181
1596.8	1086.78
1609.59	1081
1622.39	863.367
1635.18	614.543
1647.97	431.599
1660.77	338.632
1673.56	259.977
1686.35	215.075
1699.15	192.921
1711.94	156.61
1724.73	140.831
1737.53	128.313
1750.32	104.125
1763.11	104.972
1775.91	104.211
1788.7	99.5498
1801.49	100.623
1814.29	103.588
1827.08	97.2237
1839.87	80.3219
1852.67	91.517
1865.46	88.3513
1878.25	93.5018
1891.04	85.8809
1903.84	86.6817
1916.63	88.7692
1929.42	78.3574
1942.22	88.4827
1955.01	83.5661
1967.8	79.6206
1980.6	72.0564
1993.39	79.9464
2006.18	87.3212
2018.98	84.1027
2031.77	83.009
2044.56	81.772
2057.36	78.2399
2070.15	77.7198
2082.94	81.0664
2095.74	86.5481
2108.53	89.2759
2121.32	85.2273
2134.12	85.2061
2146.91	85.0333
2159.7	84.5896
2172.49	84.9246
2185.29	89.3989
2198.08	87.2875
2210.87	88.0612
2223.67	88.3077
2236.46	90.5269
2249.25	93.8274
2262.05	95.2442
2274.84	98.0399
2287.63	97.6016
2300.43	98.5518
2313.22	95.8559
2326.01	105.679
2338.81	112.495
2351.6	104.559
2364.39	109.638
2377.19	108.212
2389.98	113.322
2402.77	121.039
2415.56	129.363
2428.36	135.484
2441.15	168.283
2453.94	157.524
2466.74	152.816
2479.53	157.355
2492.32	148.612
2505.12	156.883
2517.91	160.586
2530.7	167.117
2543.5	168.688
2556.29	170.286
2569.08	165.21
2581.88	180.127
2594.67	183.478
2607.46	190.85
2620.26	196.093
2633.05	199.791
2645.84	197.972
2658.64	200.05
2671.43	204.129
2684.22	211.03
2697.01	209.814
2709.81	212.815
2722.6	213.521
2735.39	213.71
2748.19	218.85
2760.98	222.665
2773.77	225.874
2786.57	227.021
2799.36	229.207
2812.15	244.291
2824.95	233.872
2837.74	235.047
2850.53	237.921
2863.33	246.326
2876.12	242.507
2888.91	243.68
2901.71	249.963
2914.5	248.574
2927.29	245.646
2940.09	245.84
2952.88	247.096
2965.67	235.745
2978.46	217.238
2991.26	223.921
3004.05	217.507
3016.84	215.58
3029.64	207.274
3042.43	192.49
3055.22	195.035
3068.02	188.749
3080.81	184.772
3093.6	180.74
3106.4	184.923
3119.19	171.84
3131.98	179.087
3144.78	171.244
3157.57	177.265
3170.36	165.477
3183.16	177.777
3195.95	173.664
3208.74	170.051
3221.54	158.854
3234.33	156.266
3247.12	144.479
3259.91	145.332
3272.71	127.274
3285.5	135.973
3298.29	118.797
3311.09	123.743
3323.88	116.804
3336.67	118.13
3349.47	126.19
3362.26	106.867
3375.05	108.021
3387.85	118.272
3400.64	113.777
3413.43	111.196
3426.23	120.687
3439.02	116.807
3451.81	124.657
3464.61	121.607
3477.4	117.244
3490.19	118.279
3502.99	120.936
3515.78	119.598
3528.57	113.814
3541.36	113.196
3554.16	119.496
3566.95	121.401
3579.74	121.1
3592.54	123.135
3605.33	126.546
3618.12	128.859
3630.92	124.403
3643.71	122.406
3656.5	127.901
3669.3	123.715
3682.09	131.873
3694.88	131.707
3700	123.694