File: Example Data/Raman/Kara/12-20-10/C-Si-Graphene/2 bulk/CSGbulk2_1.txt
100	189.325
112.793	214.842
125.586	238.256
138.38	249.741
151.173	238.745
163.966	228.577
176.759	216.886
189.552	199.154
202.345	206.134
215.139	197.531
227.932	202.118
240.725	202.928
253.518	204.372
266.311	205.185
279.104	220.371
291.898	216.783
304.691	243.579
317.484	221.777
330.277	208.641
343.07	201.099
355.864	200.225
368.657	195.477
381.45	196.37
394.243	179.95
407.036	181.767
419.829	188.838
432.623	191.774
445.416	189.867
458.209	188.092
471.002	194.124
483.795	229.52
496.589	267.27
509.382	396.65
522.175	868.253
534.968	245.395
547.761	156.412
560.554	139.383
573.348	124.103
586.141	127.188
598.934	128.889
611.727	133.029
624.52	132.28
637.313	128.162
650.107	130.463
662.9	134.575
675.693	131.391
688.486	119.316
701.279	130.91
714.073	127.598
726.866	124.908
739.659	132.536
752.452	123.883
765.245	135.421
778.038	125.378
790.832	144.15
803.625	138.33
816.418	132.646
829.211	145.091
842.004	144.739
854.797	150.073
867.591	149.894
880.384	141.084
893.177	144.83
905.97	147.27
918.763	147.21
931.557	165.474
944.35	169.691
957.143	164.681
969.936	154.886
982.729	157.748
995.522	147.6
1008.32	144.333
1021.11	152.735
1033.9	164.625
1046.7	169.465
1059.49	168.062
1072.28	180.422
1085.07	194.543
1097.87	189.245
1110.66	215.295
1123.45	242.765
1136.25	257.738
1149.04	303.732
1161.83	329.218
1174.63	380.197
1187.42	402.455
1200.21	433.971
1213.01	467.46
1225.8	512.822
1238.59	541.46
1251.39	579.682
1264.18	626.119
1276.97	670.876
1289.77	747.861
1302.56	775.659
1315.35	829.559
1328.15	889.29
1340.94	916.595
1353.73	879.477
1366.52	889.879
1379.32	845.067
1392.11	790.963
1404.9	736.103
1417.7	693.394
1430.49	642.672
1443.28	618.851
1456.08	596.279
1468.87	601.222
1481.66	582.06
1494.46	580.426
1507.25	566.327
1520.04	570.18
1532.84	593.401
1545.63	631.006
1558.42	698.302
1571.22	838.022
1584.01	992.991
1596.8	1117.42
1609.59	1111.09
1622.39	885.317
1635.18	632.912
1647.97	444.567
1660.77	349.459
1673.56	252.93
1686.35	203.585
1699.15	182.056
1711.94	166.308
1724.73	128.78
1737.53	120.744
1750.32	120.405
1763.11	111.415
1775.91	110.6
1788.7	101.464
1801.49	106.649
1814.29	96.9242
1827.08	92.5526
1839.87	95.3594
1852.67	93.7809
1865.46	92.4397
1878.25	96.1122
1891.04	81.4988
1903.84	92.5887
1916.63	85.7215
1929.42	85.8774
1942.22	83.4164
1955.01	94.9675
1967.8	85.7418
1980.6	82.9194
1993.39	83.1473
2006.18	90.9175
2018.98	90.2984
2031.77	82.5475
2044.56	82.9962
2057.36	89.3794
2070.15	86.1817
2082.94	88.9683
2095.74	79.8812
2108.53	87.4959
2121.32	85.3711
2134.12	88.9481
2146.91	85.606
2159.7	88.2713
2172.49	92.8154
2185.29	86.7543
2198.08	90.962
2210.87	91.8733
2223.67	87.6101
2236.46	90.243
2249.25	99.8198
2262.05	91.0799
2274.84	103.109
2287.63	99.5282
2300.43	100.36
2313.22	104.185
2326.01	102.005
2338.81	120.378
2351.6	111.013
2364.39	113.265
2377.19	116.955
2389.98	117.347
2402.77	121.089
2415.56	137.475
2428.36	148.51
2441.15	176.14
2453.94	164.826
2466.74	156.193
2479.53	151.121
2492.32	157.655
2505.12	151.145
2517.91	164.866
2530.7	169.445
2543.5	173.637
2556.29	181.625
2569.08	173.029
2581.88	183.221
2594.67	189.229
2607.46	192.604
2620.26	194.88
2633.05	196.368
2645.84	200.687
2658.64	206.02
2671.43	211.846
2684.22	205.529
2697.01	206.562
2709.81	221.615
2722.6	220.218
2735.39	219.014
2748.19	223.64
2760.98	241.392
2773.77	223.674
2786.57	230.944
2799.36	227.996
2812.15	231.19
2824.95	236.766
2837.74	246.48
2850.53	237.546
2863.33	251.122
2876.12	247.571
2888.91	246.655
2901.71	251.082
2914.5	257.546
2927.29	245.845
2940.09	253.579
2952.88	249.962
2965.67	238.018
2978.46	226.161
2991.26	218.875
3004.05	211.01
3016.84	210.87
3029.64	201.22
3042.43	192.908
3055.22	203.858
3068.02	196.088
3080.81	189.118
3093.6	182.827
3106.4	183.596
3119.19	182.766
3131.98	173.338
3144.78	173.859
3157.57	172.843
3170.36	177.685
3183.16	176.404
3195.95	169.905
3208.74	160.905
3221.54	162.345
3234.33	166.431
3247.12	147.637
3259.91	140.962
3272.71	139.814
3285.5	131.624
3298.29	124.248
3311.09	127.123
3323.88	109.656
3336.67	118.691
3349.47	120.258
3362.26	116.314
3375.05	117.297
3387.85	122.269
3400.64	126.322
3413.43	123.739
3426.23	124.559
3439.02	124.456
3451.81	126.414
3464.61	125.685
3477.4	119.895
3490.19	119.137
3502.99	129.329
3515.78	119.642
3528.57	116.481
3541.36	126.386
3554.16	123.371
3566.95	126.241
3579.74	127.216
3592.54	119.34
3605.33	120.891
3618.12	131.408
3630.92	120.904
3643.71	127.655
3656.5	126.017
3669.3	127.601
3682.09	138.056
3694.88	127.512
3700	133.999